!@!!GADDS PLOTSO FILE: Chi integration type
!@!!Title/SampleName: map-129
!@!!Comment: ?
!@!!User: Bruker Instrument Administrator
!@!!Site: University of Illinois Chicago
!@!!Frame: map-129_01_000.gfrm
!@!!Wavelengths    1.54184   1.54056   1.54439
!@!!Frame angles: 2Theta: 65.000 Omega: 50.000 Phi: 0.000 Chi: 90.000
!@!!Integration range: 2Theta: 55.000 to 75.000  Gamma: -105.000 to -75.000
!@!!Integration method: bin normalized
!@!N
!@!SS
!@!M
!@!L 0.0 0.0 0.0 0.0
!@!XDegrees
!@!YCounts
55.000 3.137146
55.005 2.99116
55.010 3.085266
55.015 3.349625
55.020 3.529552
55.025 4.217054
55.030 4.44217
55.035 4.364223
55.040 4.601626
55.045 4.714921
55.050 4.661777
55.055 4.427416
55.060 3.85503
55.065 3.679198
55.070 3.775614
55.075 3.664928
55.080 3.156111
55.085 3.01051
55.090 3.394046
55.095 3.882094
55.100 4.074789
55.105 3.897187
55.110 3.748166
55.115 3.734327
55.120 3.567005
55.125 3.055938
55.130 2.950816
55.135 3.007506
55.140 3.397325
55.145 3.834417
55.150 3.784945
55.155 3.896392
55.160 3.622986
55.165 3.436565
55.170 2.98299
55.175 2.71223
55.180 2.694342
55.185 2.702123
55.190 2.473761
55.195 2.546532
55.200 2.693666
55.205 3.113233
55.210 2.953501
55.215 3.10009
55.220 3.515581
55.225 3.689086
55.230 3.792103
55.235 3.625812
55.240 3.281309
55.245 3.476408
55.250 3.226511
55.255 3.330684
55.260 3.494678
55.265 3.360495
55.270 3.793664
55.275 3.67513
55.280 3.57033
55.285 3.483112
55.290 3.41847
55.295 3.597943
55.300 3.544068
55.305 3.586682
55.310 3.599757
55.315 3.486459
55.320 3.551928
55.325 3.327436
55.330 3.449758
55.335 3.538123
55.340 3.507509
55.345 3.731975
55.350 3.690933
55.355 3.584212
55.360 3.762454
55.365 3.630758
55.370 3.658268
55.375 3.78992
55.380 3.649498
55.385 3.743472
55.390 3.755373
55.395 3.567188
55.400 3.376098
55.405 3.120145
55.410 3.008869
55.415 3.241501
55.420 3.40435
55.425 3.439381
55.430 3.602786
55.435 3.864498
55.440 4.032005
55.445 4.460644
55.450 4.580465
55.455 4.404485
55.460 4.451263
55.465 4.466243
55.470 4.822649
55.475 4.835534
55.480 4.662219
55.485 4.439368
55.490 4.428954
55.495 4.404635
55.500 4.128191
55.505 3.753969
55.510 3.612533
55.515 3.438106
55.520 3.610142
55.525 3.802764
55.530 3.861265
55.535 3.719145
55.540 3.888464
55.545 3.862096
55.550 3.85716
55.555 3.710041
55.560 3.491377
55.565 3.435543
55.570 3.359372
55.575 3.337057
55.580 3.579446
55.585 3.889998
55.590 3.973487
55.595 4.148228
55.600 4.277577
55.605 4.275922
55.610 4.36078
55.615 4.043769
55.620 3.749481
55.625 3.621036
55.630 3.568458
55.635 3.885861
55.640 4.036878
55.645 3.800462
55.650 3.519435
55.655 3.280162
55.660 3.310256
55.665 3.426753
55.670 3.246978
55.675 3.311964
55.680 3.452238
55.685 3.579023
55.690 3.487677
55.695 3.253245
55.700 3.000855
55.705 2.794482
55.710 2.819863
55.715 3.0553
55.720 3.32441
55.725 3.529698
55.730 3.696423
55.735 4.000232
55.740 3.872551
55.745 3.645545
55.750 3.586661
55.755 3.590386
55.760 3.646939
55.765 3.517154
55.770 3.545191
55.775 3.721381
55.780 3.699375
55.785 3.806325
55.790 3.677405
55.795 3.666727
55.800 3.468654
55.805 3.223925
55.810 3.233644
55.815 3.137961
55.820 3.115446
55.825 3.191887
55.830 3.374375
55.835 3.713691
55.840 3.862667
55.845 4.07316
55.850 3.869518
55.855 3.794698
55.860 3.674078
55.865 3.114138
55.870 3.06851
55.875 3.280123
55.880 3.114575
55.885 3.656115
55.890 3.823009
55.895 3.966162
55.900 4.045586
55.905 3.711903
55.910 3.600633
55.915 3.758223
55.920 3.377331
55.925 3.124535
55.930 3.119705
55.935 3.116378
55.940 3.080381
55.945 2.906583
55.950 3.033349
55.955 3.227789
55.960 3.197357
55.965 3.322803
55.970 3.529565
55.975 3.926317
55.980 3.990514
55.985 3.829111
55.990 3.949519
55.995 4.152158
56.000 4.051145
56.005 3.743403
56.010 3.807251
56.015 3.85626
56.020 3.815724
56.025 3.684993
56.030 3.951988
56.035 4.012783
56.040 4.190611
56.045 4.207388
56.050 4.071795
56.055 4.131064
56.060 4.149158
56.065 4.01836
56.070 4.021101
56.075 3.718335
56.080 3.63139
56.085 3.662586
56.090 3.585177
56.095 3.114285
56.100 2.921859
56.105 2.77457
56.110 2.516223
56.115 2.323929
56.120 2.249877
56.125 2.448876
56.130 2.492462
56.135 2.489964
56.140 2.855251
56.145 3.467051
56.150 3.614039
56.155 3.380669
56.160 3.160249
56.165 3.273476
56.170 3.329311
56.175 3.254847
56.180 2.996967
56.185 2.925676
56.190 2.89405
56.195 3.232874
56.200 3.667842
56.205 3.686892
56.210 3.721284
56.215 3.522508
56.220 3.696963
56.225 3.786128
56.230 3.73997
56.235 3.64412
56.240 3.637424
56.245 3.3539
56.250 3.491625
56.255 3.340973
56.260 3.19163
56.265 3.319186
56.270 3.077773
56.275 2.784917
56.280 2.770431
56.285 2.823263
56.290 2.913457
56.295 2.865516
56.300 2.69776
56.305 3.106771
56.310 3.572481
56.315 3.635853
56.320 3.537639
56.325 3.598864
56.330 3.75988
56.335 3.639297
56.340 3.354803
56.345 3.406674
56.350 3.508758
56.355 3.659982
56.360 3.536026
56.365 3.283569
56.370 3.393913
56.375 3.230691
56.380 3.089535
56.385 3.176062
56.390 3.26116
56.395 3.398846
56.400 3.608708
56.405 3.721768
56.410 3.865783
56.415 3.710514
56.420 3.546281
56.425 3.403073
56.430 3.146433
56.435 3.021074
56.440 3.162992
56.445 3.395073
56.450 3.545746
56.455 3.746836
56.460 3.646444
56.465 3.819096
56.470 3.680767
56.475 3.40475
56.480 3.132248
56.485 3.138256
56.490 2.99087
56.495 3.397728
56.500 3.537043
56.505 3.594756
56.510 3.892075
56.515 4.15267
56.520 4.161742
56.525 4.045056
56.530 3.764217
56.535 3.760082
56.540 3.522827
56.545 3.235969
56.550 3.160376
56.555 3.175858
56.560 3.135411
56.565 3.530336
56.570 3.425019
56.575 3.456144
56.580 3.540222
56.585 3.591158
56.590 3.700291
56.595 3.563271
56.600 3.374161
56.605 3.209202
56.610 3.233176
56.615 3.029665
56.620 2.976057
56.625 3.003445
56.630 2.789768
56.635 2.644519
56.640 3.192031
56.645 3.347625
56.650 3.376114
56.655 3.770387
56.660 4.180858
56.665 4.416244
56.670 4.223739
56.675 3.894699
56.680 3.748337
56.685 3.363005
56.690 2.979523
56.695 3.120001
56.700 3.543311
56.705 3.500302
56.710 3.430646
56.715 3.396287
56.720 3.533565
56.725 3.445387
56.730 3.107876
56.735 2.675016
56.740 2.839569
56.745 2.891907
56.750 3.121227
56.755 3.118777
56.760 3.069233
56.765 3.008927
56.770 2.818649
56.775 2.61775
56.780 2.574048
56.785 2.40724
56.790 2.301732
56.795 2.349326
56.800 2.679848
56.805 3.271651
56.810 3.186117
56.815 3.073387
56.820 3.054451
56.825 3.388215
56.830 3.440716
56.835 3.296769
56.840 3.094665
56.845 3.36274
56.850 3.470001
56.855 3.372152
56.860 3.156128
56.865 3.384193
56.870 3.223861
56.875 2.993894
56.880 2.919762
56.885 3.070327
56.890 3.063977
56.895 2.86304
56.900 2.70315
56.905 2.602217
56.910 2.372406
56.915 2.323246
56.920 2.112035
56.925 2.253536
56.930 2.161177
56.935 2.016831
56.940 2.477919
56.945 2.609624
56.950 2.567848
56.955 2.800316
56.960 2.807482
56.965 2.809673
56.970 2.887956
56.975 2.794632
56.980 2.876235
56.985 2.779318
56.990 2.666077
56.995 2.59032
57.000 2.682996
57.005 2.691082
57.010 2.596733
57.015 2.613072
57.020 2.69817
57.025 2.672559
57.030 2.594281
57.035 2.567495
57.040 2.789193
57.045 3.020194
57.050 3.224825
57.055 3.415554
57.060 3.573853
57.065 3.646275
57.070 3.611844
57.075 3.534456
57.080 3.152018
57.085 3.023521
57.090 2.900444
57.095 3.101712
57.100 2.983059
57.105 2.829472
57.110 2.601367
57.115 2.740797
57.120 2.658485
57.125 2.68422
57.130 2.8258
57.135 3.25433
57.140 3.396701
57.145 3.330142
57.150 3.130354
57.155 3.096979
57.160 3.02229
57.165 3.195562
57.170 3.32365
57.175 3.329808
57.180 3.680053
57.185 3.873617
57.190 3.548205
57.195 3.150404
57.200 2.483128
57.205 2.236077
57.210 2.524883
57.215 2.648972
57.220 3.184185
57.225 3.50183
57.230 3.748741
57.235 3.648033
57.240 3.752964
57.245 3.694954
57.250 3.547509
57.255 3.414412
57.260 3.393937
57.265 3.28703
57.270 3.528056
57.275 3.570596
57.280 3.518364
57.285 3.166803
57.290 2.968579
57.295 2.921253
57.300 3.020816
57.305 2.824195
57.310 2.586878
57.315 2.387464
57.320 2.561589
57.325 2.614659
57.330 2.399259
57.335 2.397925
57.340 2.547629
57.345 2.455353
57.350 2.325519
57.355 2.238087
57.360 2.193101
57.365 2.203695
57.370 2.438866
57.375 2.294991
57.380 2.613399
57.385 2.890851
57.390 3.33224
57.395 3.430477
57.400 3.417919
57.405 3.211777
57.410 3.456279
57.415 3.478373
57.420 3.273417
57.425 2.973026
57.430 2.938226
57.435 2.982792
57.440 3.192493
57.445 3.17302
57.450 3.335484
57.455 3.54669
57.460 3.573468
57.465 3.470393
57.470 3.418349
57.475 2.961277
57.480 2.712442
57.485 2.708213
57.490 2.662592
57.495 3.189698
57.500 3.479104
57.505 3.684208
57.510 3.82688
57.515 3.94298
57.520 4.021217
57.525 4.114745
57.530 3.932073
57.535 3.67776
57.540 3.769594
57.545 3.841502
57.550 3.536781
57.555 3.441231
57.560 3.6271
57.565 3.568765
57.570 3.611077
57.575 3.452575
57.580 3.710388
57.585 3.742569
57.590 3.502789
57.595 3.140365
57.600 3.264683
57.605 3.211138
57.610 3.143513
57.615 3.337211
57.620 3.704576
57.625 3.617452
57.630 3.543736
57.635 3.336797
57.640 3.398394
57.645 3.13602
57.650 2.67554
57.655 2.685796
57.660 2.991794
57.665 3.331365
57.670 3.2493
57.675 3.385624
57.680 3.524891
57.685 3.496458
57.690 3.446416
57.695 3.409858
57.700 3.509073
57.705 3.640387
57.710 3.704978
57.715 3.739814
57.720 3.514662
57.725 3.045865
57.730 2.666638
57.735 2.723116
57.740 2.760798
57.745 2.541243
57.750 2.551129
57.755 2.740963
57.760 2.814864
57.765 2.824656
57.770 2.651202
57.775 2.975146
57.780 3.147727
57.785 3.293782
57.790 3.793483
57.795 4.249003
57.800 4.257267
57.805 4.062887
57.810 3.769326
57.815 3.666311
57.820 3.514081
57.825 3.264489
57.830 3.113913
57.835 3.222868
57.840 3.294327
57.845 3.353794
57.850 3.569486
57.855 3.658031
57.860 3.807347
57.865 3.666437
57.870 3.87633
57.875 3.758996
57.880 3.406526
57.885 3.194363
57.890 3.148843
57.895 3.376213
57.900 3.518021
57.905 3.588358
57.910 3.732733
57.915 3.973033
57.920 3.988879
57.925 3.595691
57.930 3.19187
57.935 3.262855
57.940 3.064454
57.945 3.053381
57.950 3.023005
57.955 2.993424
57.960 3.26786
57.965 3.637734
57.970 3.594516
57.975 3.409886
57.980 3.204937
57.985 3.356342
57.990 3.299181
57.995 3.046031
58.000 2.816236
58.005 2.74656
58.010 2.783488
58.015 2.711405
58.020 2.272125
58.025 2.199204
58.030 2.418211
58.035 2.449903
58.040 2.591025
58.045 3.009987
58.050 3.245916
58.055 3.384274
58.060 3.386945
58.065 3.384451
58.070 3.510854
58.075 3.407351
58.080 3.080027
58.085 3.013571
58.090 3.365535
58.095 3.625541
58.100 3.832659
58.105 3.585593
58.110 3.492056
58.115 3.564455
58.120 3.430966
58.125 3.112689
58.130 2.813821
58.135 2.914081
58.140 2.943499
58.145 2.953224
58.150 3.057709
58.155 3.4103
58.160 3.624435
58.165 3.408873
58.170 3.041448
58.175 3.241737
58.180 3.287538
58.185 3.210917
58.190 2.859208
58.195 2.895498
58.200 3.272795
58.205 3.320123
58.210 3.273721
58.215 3.269588
58.220 3.462877
58.225 3.64194
58.230 3.448778
58.235 3.312673
58.240 3.270933
58.245 3.361238
58.250 3.764118
58.255 3.880404
58.260 4.044093
58.265 4.20548
58.270 4.334812
58.275 4.332454
58.280 4.165397
58.285 3.907716
58.290 3.919324
58.295 3.858461
58.300 3.775732
58.305 3.55247
58.310 3.64038
58.315 3.765424
58.320 3.594417
58.325 3.175014
58.330 3.267112
58.335 2.865108
58.340 2.750566
58.345 2.729668
58.350 2.803296
58.355 2.972476
58.360 3.095299
58.365 2.924604
58.370 3.264525
58.375 3.402957
58.380 3.12478
58.385 3.003659
58.390 2.88263
58.395 2.992927
58.400 3.164212
58.405 2.936365
58.410 2.811891
58.415 3.001598
58.420 2.815592
58.425 2.816433
58.430 2.714875
58.435 2.682376
58.440 2.821584
58.445 2.914042
58.450 3.132567
58.455 3.828065
58.460 3.9932
58.465 4.00308
58.470 4.020487
58.475 4.219098
58.480 4.19157
58.485 3.913392
58.490 3.565506
58.495 3.476153
58.500 3.169058
58.505 3.077116
58.510 2.824407
58.515 3.103062
58.520 3.147975
58.525 3.162742
58.530 3.481529
58.535 3.805967
58.540 4.129248
58.545 4.087782
58.550 3.932863
58.555 3.838621
58.560 3.742754
58.565 3.744007
58.570 3.759529
58.575 3.699672
58.580 3.855284
58.585 3.938822
58.590 3.910664
58.595 4.003432
58.600 3.886851
58.605 3.677509
58.610 3.847404
58.615 3.837783
58.620 4.042816
58.625 4.503122
58.630 4.666518
58.635 4.893995
58.640 4.755061
58.645 4.468566
58.650 4.792399
58.655 4.740767
58.660 4.730016
58.665 4.577109
58.670 4.592413
58.675 5.048981
58.680 5.130935
58.685 4.764137
58.690 4.547488
58.695 4.56844
58.700 4.705253
58.705 4.722707
58.710 4.850724
58.715 5.037716
58.720 5.197651
58.725 5.450363
58.730 5.311253
58.735 5.382176
58.740 5.371877
58.745 5.636458
58.750 6.130661
58.755 6.35593
58.760 6.250508
58.765 6.747091
58.770 7.10336
58.775 7.694021
58.780 7.733433
58.785 7.645525
58.790 7.860811
58.795 7.787585
58.800 7.286194
58.805 6.991037
58.810 6.722091
58.815 6.690864
58.820 7.108709
58.825 6.673962
58.830 6.481994
58.835 6.742672
58.840 6.970724
58.845 6.883698
58.850 6.896026
58.855 7.006781
58.860 7.566071
58.865 7.961959
58.870 7.826807
58.875 7.499784
58.880 7.407183
58.885 6.905954
58.890 6.496987
58.895 6.144605
58.900 6.15813
58.905 6.091428
58.910 5.981256
58.915 5.631245
58.920 5.778651
58.925 5.801474
58.930 5.656369
58.935 5.973164
58.940 6.39633
58.945 6.940173
58.950 7.351067
58.955 6.936738
58.960 7.02152
58.965 6.814477
58.970 6.583017
58.975 6.412369
58.980 6.268899
58.985 6.049015
58.990 6.028542
58.995 6.381991
59.000 6.787021
59.005 6.454375
59.010 6.318051
59.015 6.390664
59.020 7.179185
59.025 7.811937
59.030 7.812933
59.035 7.601975
59.040 7.474926
59.045 7.277593
59.050 7.078916
59.055 6.72716
59.060 6.263042
59.065 5.645295
59.070 5.532009
59.075 5.384521
59.080 5.34197
59.085 4.92066
59.090 4.664031
59.095 4.530528
59.100 4.447722
59.105 4.905321
59.110 5.017005
59.115 5.106933
59.120 5.127378
59.125 5.168794
59.130 5.217957
59.135 5.242671
59.140 4.893561
59.145 4.875257
59.150 4.733852
59.155 4.978791
59.160 4.610286
59.165 4.634271
59.170 4.477768
59.175 4.169992
59.180 3.964108
59.185 3.828597
59.190 3.656276
59.195 3.612048
59.200 3.345382
59.205 3.47063
59.210 3.621753
59.215 3.880536
59.220 4.107123
59.225 4.142284
59.230 4.260505
59.235 4.303348
59.240 4.448301
59.245 4.455271
59.250 4.101451
59.255 3.721221
59.260 3.628624
59.265 3.621794
59.270 3.278035
59.275 2.94046
59.280 2.847181
59.285 3.086859
59.290 3.565137
59.295 3.673661
59.300 3.673341
59.305 3.757579
59.310 3.807122
59.315 3.570946
59.320 3.355302
59.325 2.865542
59.330 2.560291
59.335 2.413393
59.340 2.469919
59.345 2.729826
59.350 3.009391
59.355 3.026092
59.360 2.961125
59.365 2.881051
59.370 2.913645
59.375 2.898184
59.380 2.728992
59.385 2.685073
59.390 2.804579
59.395 3.04668
59.400 3.61369
59.405 4.044545
59.410 4.136229
59.415 4.189768
59.420 4.340038
59.425 4.266276
59.430 4.011509
59.435 3.711026
59.440 3.730033
59.445 3.872591
59.450 4.015425
59.455 3.859545
59.460 3.931314
59.465 4.043435
59.470 3.676239
59.475 3.237281
59.480 3.009604
59.485 2.905894
59.490 2.832026
59.495 2.584208
59.500 2.510144
59.505 2.494861
59.510 2.777486
59.515 2.895425
59.520 2.898929
59.525 2.977313
59.530 3.20992
59.535 3.095749
59.540 3.241185
59.545 3.165752
59.550 2.894705
59.555 2.851928
59.560 2.91287
59.565 2.613338
59.570 2.724591
59.575 2.688359
59.580 2.390404
59.585 2.396182
59.590 2.52075
59.595 2.44391
59.600 2.600787
59.605 2.711469
59.610 3.087893
59.615 3.48632
59.620 3.423541
59.625 3.356752
59.630 3.259488
59.635 3.369922
59.640 2.994577
59.645 2.640503
59.650 2.470795
59.655 2.541806
59.660 2.713279
59.665 3.031313
59.670 3.025185
59.675 3.415236
59.680 3.497697
59.685 3.875804
59.690 4.073004
59.695 4.077988
59.700 3.870146
59.705 3.923481
59.710 3.729892
59.715 3.808593
59.720 3.519315
59.725 3.280023
59.730 3.161117
59.735 2.998246
59.740 2.787644
59.745 2.82938
59.750 2.646091
59.755 2.674938
59.760 2.900639
59.765 2.867825
59.770 3.193847
59.775 3.555362
59.780 3.374305
59.785 3.621402
59.790 3.893795
59.795 3.686653
59.800 3.722379
59.805 3.624416
59.810 3.572169
59.815 3.606951
59.820 3.382084
59.825 3.225496
59.830 3.574374
59.835 3.749562
59.840 3.637058
59.845 3.376176
59.850 3.109665
59.855 3.097329
59.860 2.803626
59.865 2.4903
59.870 2.445414
59.875 2.313232
59.880 2.468813
59.885 2.538966
59.890 2.674
59.895 2.922184
59.900 2.744423
59.905 2.852898
59.910 3.018807
59.915 3.217125
59.920 3.336937
59.925 3.336199
59.930 3.319205
59.935 3.402317
59.940 3.250722
59.945 3.16115
59.950 3.330282
59.955 3.219096
59.960 3.054209
59.965 2.936308
59.970 2.90885
59.975 3.167502
59.980 3.359533
59.985 3.361958
59.990 3.497527
59.995 3.499313
60.000 3.506222
60.005 3.521502
60.010 3.14626
60.015 2.892217
60.020 2.540927
60.025 2.522174
60.030 2.518933
60.035 2.481245
60.040 2.514718
60.045 2.597815
60.050 2.532399
60.055 2.507267
60.060 2.763684
60.065 2.989711
60.070 3.072725
60.075 3.185198
60.080 3.235395
60.085 3.310278
60.090 3.335166
60.095 3.177136
60.100 2.795663
60.105 2.945723
60.110 2.570195
60.115 2.612842
60.120 3.070032
60.125 2.968869
60.130 2.980563
60.135 2.943794
60.140 2.83003
60.145 3.107223
60.150 3.147407
60.155 2.599449
60.160 2.486018
60.165 2.432945
60.170 2.604996
60.175 2.626167
60.180 2.521847
60.185 2.401825
60.190 2.680137
60.195 2.946651
60.200 3.149068
60.205 3.135484
60.210 3.075594
60.215 2.847257
60.220 2.943389
60.225 3.162678
60.230 3.422878
60.235 3.509778
60.240 3.574442
60.245 3.688982
60.250 3.912819
60.255 3.728522
60.260 3.597796
60.265 3.446399
60.270 3.378075
60.275 3.342741
60.280 3.409552
60.285 3.6491
60.290 3.694854
60.295 3.661211
60.300 3.355596
60.305 3.195801
60.310 3.04349
60.315 2.846518
60.320 2.362655
60.325 2.266556
60.330 2.093054
60.335 1.970792
60.340 2.140796
60.345 2.520743
60.350 2.73366
60.355 3.137169
60.360 3.071969
60.365 3.248326
60.370 3.421523
60.375 3.111862
60.380 3.116461
60.385 3.280985
60.390 3.051211
60.395 2.918751
60.400 2.897121
60.405 3.189929
60.410 3.584577
60.415 3.420549
60.420 3.505576
60.425 3.921414
60.430 4.072656
60.435 3.843421
60.440 3.449143
60.445 3.284704
60.450 3.230862
60.455 3.192115
60.460 3.002055
60.465 3.143908
60.470 3.573743
60.475 3.873148
60.480 3.976857
60.485 3.830295
60.490 3.668299
60.495 3.830093
60.500 3.647724
60.505 3.506622
60.510 3.247235
60.515 3.010133
60.520 3.075229
60.525 2.884134
60.530 2.780447
60.535 3.151325
60.540 2.829741
60.545 2.800675
60.550 3.183921
60.555 3.169889
60.560 3.321027
60.565 3.333795
60.570 3.241788
60.575 3.292915
60.580 3.353394
60.585 3.041461
60.590 2.843105
60.595 2.571403
60.600 2.644475
60.605 2.995575
60.610 3.45915
60.615 3.545377
60.620 3.668098
60.625 3.702432
60.630 3.642908
60.635 3.356081
60.640 3.035864
60.645 3.030223
60.650 3.026294
60.655 3.233985
60.660 3.415664
60.665 3.467269
60.670 3.359708
60.675 3.168402
60.680 3.212709
60.685 3.400048
60.690 3.297002
60.695 3.173615
60.700 3.171121
60.705 3.271484
60.710 3.160177
60.715 2.731445
60.720 2.563442
60.725 2.483295
60.730 2.557382
60.735 2.782326
60.740 2.878841
60.745 3.10501
60.750 3.184052
60.755 3.200772
60.760 3.418985
