!@!!GADDS PLOTSO FILE: Chi integration type
!@!!Title/SampleName: map-13c
!@!!Comment: ?
!@!!User: Bruker Instrument Administrator
!@!!Site: University of Illinois Chicago
!@!!Frame: map-13c_01_000.gfrm
!@!!Wavelengths    1.54184   1.54056   1.54439
!@!!Frame angles: 2Theta: 65.000 Omega: 50.000 Phi: 0.000 Chi: 90.000
!@!!Integration range: 2Theta: 55.000 to 75.000  Gamma: -105.000 to -75.000
!@!!Integration method: bin normalized
!@!N
!@!SS
!@!M
!@!L 0.0 0.0 0.0 0.0
!@!XDegrees
!@!YCounts
55.000 3.189453
55.005 3.04831
55.010 3.188317
55.015 3.200611
55.020 3.269263
55.025 3.419244
55.030 3.672059
55.035 3.778527
55.040 3.994262
55.045 4.144152
55.050 4.130706
55.055 4.071274
55.060 3.759285
55.065 3.655828
55.070 3.795415
55.075 3.709966
55.080 3.744624
55.085 3.762061
55.090 3.923589
55.095 4.050991
55.100 3.874334
55.105 3.545043
55.110 3.295305
55.115 3.293452
55.120 3.39619
55.125 3.600428
55.130 3.652307
55.135 4.196762
55.140 4.395141
55.145 4.652036
55.150 4.748706
55.155 4.670161
55.160 4.703012
55.165 4.526332
55.170 4.185685
55.175 4.222577
55.180 3.985397
55.185 3.654511
55.190 3.46411
55.195 3.30851
55.200 3.320215
55.205 3.295232
55.210 3.107432
55.215 3.243239
55.220 3.544518
55.225 3.485873
55.230 3.58882
55.235 3.703744
55.240 4.081839
55.245 4.613709
55.250 4.827062
55.255 4.915973
55.260 5.052863
55.265 5.034158
55.270 4.947758
55.275 4.525922
55.280 4.224772
55.285 4.134392
55.290 4.128092
55.295 3.913901
55.300 3.698388
55.305 3.823371
55.310 3.817541
55.315 3.58141
55.320 3.233254
55.325 3.092243
55.330 3.270956
55.335 3.414438
55.340 3.258589
55.345 3.256749
55.350 3.472685
55.355 3.764982
55.360 3.869783
55.365 3.99099
55.370 4.068744
55.375 4.295213
55.380 4.651102
55.385 4.563385
55.390 4.703543
55.395 5.003885
55.400 4.926819
55.405 4.649422
55.410 4.259127
55.415 3.910425
55.420 4.093798
55.425 3.545151
55.430 3.147202
55.435 3.267037
55.440 3.68938
55.445 3.552958
55.450 3.277706
55.455 2.942968
55.460 2.89392
55.465 3.047136
55.470 2.909438
55.475 3.170527
55.480 3.488887
55.485 3.774211
55.490 4.2723
55.495 4.57891
55.500 4.743298
55.505 4.746027
55.510 4.728679
55.515 4.847873
55.520 4.998288
55.525 4.9607
55.530 5.245817
55.535 5.106223
55.540 5.202316
55.545 5.113592
55.550 5.081352
55.555 4.707529
55.560 4.311395
55.565 4.150503
55.570 3.95014
55.575 3.800945
55.580 3.785117
55.585 3.611713
55.590 3.742212
55.595 3.912478
55.600 4.056274
55.605 4.243397
55.610 3.932518
55.615 3.752189
55.620 3.495298
55.625 3.523376
55.630 3.192365
55.635 2.920565
55.640 2.968591
55.645 3.120313
55.650 3.271774
55.655 3.525737
55.660 3.450654
55.665 3.501244
55.670 3.611728
55.675 3.699469
55.680 3.695537
55.685 3.972867
55.690 3.955557
55.695 3.946969
55.700 3.774327
55.705 3.911642
55.710 3.963054
55.715 3.828776
55.720 3.765672
55.725 4.101733
55.730 4.148866
55.735 3.858231
55.740 3.56837
55.745 3.356351
55.750 3.763638
55.755 3.853074
55.760 3.453705
55.765 3.586331
55.770 3.714424
55.775 3.887066
55.780 4.028932
55.785 3.718553
55.790 3.654488
55.795 3.563527
55.800 3.592406
55.805 3.874874
55.810 3.819847
55.815 3.774327
55.820 3.704021
55.825 4.092185
55.830 4.398608
55.835 4.825349
55.840 4.8603
55.845 4.813931
55.850 4.583807
55.855 4.516786
55.860 4.401663
55.865 4.010772
55.870 3.455237
55.875 3.744525
55.880 3.739134
55.885 4.268984
55.890 4.222155
55.895 4.365404
55.900 4.63922
55.905 4.635966
55.910 4.486431
55.915 4.670814
55.920 4.385099
55.925 4.774838
55.930 4.567501
55.935 4.690517
55.940 4.548515
55.945 4.59611
55.950 4.370862
55.955 4.736862
55.960 4.543828
55.965 4.906508
55.970 4.934805
55.975 5.04498
55.980 5.25324
55.985 5.158784
55.990 4.642321
55.995 4.819958
56.000 4.684407
56.005 4.609297
56.010 4.661766
56.015 4.483394
56.020 4.552686
56.025 4.368227
56.030 4.383328
56.035 4.760766
56.040 4.799487
56.045 4.572881
56.050 4.516754
56.055 4.347292
56.060 4.060704
56.065 3.883613
56.070 3.510692
56.075 3.334756
56.080 3.476003
56.085 3.373366
56.090 3.702264
56.095 3.838781
56.100 3.982004
56.105 3.992279
56.110 3.912715
56.115 3.762799
56.120 3.631448
56.125 3.511588
56.130 3.529924
56.135 3.418593
56.140 3.633671
56.145 3.929421
56.150 4.444867
56.155 4.597237
56.160 4.926611
56.165 4.644533
56.170 4.678459
56.175 4.908349
56.180 4.954679
56.185 4.613075
56.190 4.589731
56.195 4.461656
56.200 4.701488
56.205 4.485495
56.210 4.344652
56.215 4.44003
56.220 4.617534
56.225 5.230114
56.230 5.424854
56.235 5.399021
56.240 5.353267
56.245 5.134584
56.250 5.152754
56.255 4.792427
56.260 4.263542
56.265 3.856809
56.270 3.789144
56.275 3.958999
56.280 3.994294
56.285 3.971753
56.290 4.246773
56.295 4.642049
56.300 4.804097
56.305 5.007168
56.310 4.744254
56.315 4.613523
56.320 4.516695
56.325 4.041171
56.330 3.875658
56.335 3.835397
56.340 3.740469
56.345 3.757109
56.350 4.027569
56.355 4.164118
56.360 4.2325
56.365 4.224572
56.370 3.916161
56.375 3.758988
56.380 3.62664
56.385 3.33219
56.390 3.517267
56.395 3.460076
56.400 3.667661
56.405 3.656271
56.410 3.72628
56.415 3.714136
56.420 3.789822
56.425 3.886456
56.430 3.936747
56.435 3.494504
56.440 3.611744
56.445 3.491046
56.450 3.700401
56.455 3.670948
56.460 3.354028
56.465 3.568045
56.470 3.64504
56.475 3.500989
56.480 3.558527
56.485 3.39066
56.490 3.154438
56.495 3.014518
56.500 3.075999
56.505 3.238648
56.510 3.632359
56.515 3.924509
56.520 4.036054
56.525 4.338327
56.530 4.275165
56.535 4.078941
56.540 3.98218
56.545 3.365869
56.550 3.202397
56.555 3.097121
56.560 2.983799
56.565 3.394915
56.570 3.830403
56.575 4.15745
56.580 4.210145
56.585 4.144816
56.590 4.185393
56.595 3.948923
56.600 3.886081
56.605 3.397299
56.610 3.279154
56.615 3.394062
56.620 3.302815
56.625 3.428407
56.630 3.467331
56.635 3.1029
56.640 3.361593
56.645 3.477029
56.650 3.406117
56.655 3.888661
56.660 4.036704
56.665 3.980211
56.670 4.037871
56.675 4.080153
56.680 4.236896
56.685 4.052433
56.690 3.890234
56.695 3.600198
56.700 3.91211
56.705 4.44943
56.710 4.533251
56.715 4.395034
56.720 4.377306
56.725 4.061971
56.730 4.19181
56.735 4.362038
56.740 3.968913
56.745 3.945778
56.750 3.965565
56.755 4.033809
56.760 4.255127
56.765 4.393764
56.770 4.420496
56.775 4.281769
56.780 4.450739
56.785 4.33648
56.790 4.355396
56.795 4.520325
56.800 4.337112
56.805 3.977613
56.810 3.964283
56.815 3.968108
56.820 4.196904
56.825 4.050597
56.830 3.967081
56.835 4.081312
56.840 4.161424
56.845 4.34557
56.850 4.098709
56.855 4.232294
56.860 4.249839
56.865 4.347111
56.870 4.305457
56.875 4.191889
56.880 4.153609
56.885 4.122619
56.890 3.864991
56.895 3.850513
56.900 3.551641
56.905 3.618823
56.910 3.753222
56.915 3.79141
56.920 3.846313
56.925 3.739767
56.930 3.662258
56.935 3.543031
56.940 3.439763
56.945 3.534496
56.950 3.528351
56.955 3.523065
56.960 3.488804
56.965 3.478884
56.970 3.756353
56.975 4.152137
56.980 3.994445
56.985 3.800344
56.990 3.754158
56.995 3.682755
57.000 3.447994
57.005 3.214261
57.010 2.932498
57.015 3.110814
57.020 3.245559
57.025 3.466243
57.030 3.804837
57.035 4.08595
57.040 4.165312
57.045 4.17912
57.050 3.962933
57.055 4.132022
57.060 4.024165
57.065 3.998866
57.070 4.040825
57.075 3.714907
57.080 3.703486
57.085 4.001182
57.090 4.091261
57.095 3.957003
57.100 3.998806
57.105 4.146661
57.110 4.116779
57.115 4.052861
57.120 3.723697
57.125 3.588727
57.130 3.712473
57.135 3.666625
57.140 3.720886
57.145 3.914104
57.150 4.143267
57.155 4.544815
57.160 4.564494
57.165 4.543768
57.170 4.351255
57.175 4.37855
57.180 4.560209
57.185 4.127157
57.190 3.752203
57.195 3.720207
57.200 3.720548
57.205 3.727456
57.210 3.588675
57.215 3.444795
57.220 3.73754
57.225 3.876217
57.230 3.730809
57.235 3.652185
57.240 3.901189
57.245 3.842357
57.250 3.918684
57.255 4.211945
57.260 4.272868
57.265 4.498941
57.270 4.837679
57.275 5.006598
57.280 4.716957
57.285 4.521463
57.290 4.463192
57.295 4.346895
57.300 4.224065
57.305 3.846289
57.310 3.781142
57.315 3.847536
57.320 3.577383
57.325 3.395884
57.330 3.347211
57.335 3.384162
57.340 3.407727
57.345 3.46664
57.350 4.00315
57.355 4.297889
57.360 4.195971
57.365 4.074519
57.370 3.957534
57.375 3.858282
57.380 3.692288
57.385 3.447209
57.390 3.391683
57.395 3.493076
57.400 3.539503
57.405 3.662817
57.410 3.943627
57.415 3.70807
57.420 3.365631
57.425 3.359291
57.430 3.681427
57.435 3.905178
57.440 3.783361
57.445 3.612333
57.450 3.800627
57.455 3.982246
57.460 4.05994
57.465 3.522738
57.470 3.378559
57.475 3.466716
57.480 3.650205
57.485 4.374106
57.490 4.269595
57.495 4.535415
57.500 4.952131
57.505 4.960011
57.510 5.055538
57.515 4.476315
57.520 4.117484
57.525 4.17599
57.530 3.7723
57.535 3.370029
57.540 3.433697
57.545 3.515005
57.550 3.656699
57.555 3.766871
57.560 3.755101
57.565 4.219384
57.570 4.307654
57.575 4.171409
57.580 4.536474
57.585 4.529819
57.590 4.353218
57.595 4.179977
57.600 3.92655
57.605 3.818305
57.610 3.69436
57.615 3.83462
57.620 4.140862
57.625 4.3081
57.630 4.379357
57.635 4.727029
57.640 4.990289
57.645 4.857148
57.650 4.332365
57.655 3.889679
57.660 3.949465
57.665 4.10318
57.670 3.914088
57.675 3.861137
57.680 3.908903
57.685 3.694547
57.690 3.508028
57.695 3.480825
57.700 3.441822
57.705 3.47361
57.710 3.309316
57.715 3.328894
57.720 3.591353
57.725 3.644999
57.730 3.806828
57.735 4.156224
57.740 4.181209
57.745 4.340814
57.750 4.099865
57.755 4.315742
57.760 4.351439
57.765 3.830799
57.770 3.83199
57.775 4.092931
57.780 4.164853
57.785 4.594741
57.790 4.706543
57.795 5.030378
57.800 5.110477
57.805 5.156718
57.810 5.11879
57.815 5.060762
57.820 4.661634
57.825 4.501516
57.830 4.218144
57.835 4.064426
57.840 3.847567
57.845 3.770231
57.850 3.7207
57.855 4.04854
57.860 4.38272
57.865 4.769821
57.870 4.721229
57.875 4.607237
57.880 4.635852
57.885 4.624774
57.890 4.48486
57.895 3.858691
57.900 3.438954
57.905 3.778319
57.910 3.613709
57.915 3.524389
57.920 3.79516
57.925 3.469954
57.930 3.595292
57.935 3.692253
57.940 3.374287
57.945 3.669359
57.950 3.605737
57.955 3.563201
57.960 3.810777
57.965 3.550389
57.970 3.447856
57.975 3.332805
57.980 3.010174
57.985 2.910285
57.990 3.06996
57.995 3.170817
58.000 3.246017
58.005 3.409502
58.010 3.909809
58.015 4.45793
58.020 4.735824
58.025 4.548534
58.030 4.745001
58.035 4.855011
58.040 4.922664
58.045 4.74186
58.050 4.868735
58.055 4.588617
58.060 4.477044
58.065 4.335233
58.070 4.413289
58.075 4.566691
58.080 4.471513
58.085 4.547633
58.090 4.879673
58.095 4.844383
58.100 4.97616
58.105 5.314768
58.110 5.41372
58.115 5.332897
58.120 4.995065
58.125 4.810092
58.130 5.266705
58.135 5.015296
58.140 4.520378
58.145 4.386269
58.150 4.285717
58.155 4.529207
58.160 4.633398
58.165 4.262602
58.170 4.258996
58.175 3.919512
58.180 3.833291
58.185 3.947666
58.190 3.993735
58.195 3.850363
58.200 3.874565
58.205 4.123158
58.210 4.32298
58.215 4.445841
58.220 4.133066
58.225 3.639275
58.230 3.662486
58.235 3.821721
58.240 3.769258
58.245 3.695879
58.250 3.793401
58.255 4.019459
58.260 4.276812
58.265 4.426456
58.270 4.26827
58.275 4.121881
58.280 3.805448
58.285 3.887516
58.290 4.081244
58.295 4.218427
58.300 4.232068
58.305 4.55123
58.310 5.008104
58.315 5.498593
58.320 5.41489
58.325 4.971207
58.330 4.605166
58.335 4.409198
58.340 4.110417
58.345 3.859912
58.350 3.490733
58.355 3.424743
58.360 3.824864
58.365 4.311207
58.370 4.44073
58.375 4.626142
58.380 4.850786
58.385 5.463345
58.390 5.968281
58.395 5.703357
58.400 5.39851
58.405 5.414347
58.410 5.480846
58.415 5.593505
58.420 5.21375
58.425 4.998816
58.430 5.110861
58.435 5.139637
58.440 5.01813
58.445 4.831234
58.450 4.902654
58.455 4.930398
58.460 4.846876
58.465 4.885188
58.470 4.97828
58.475 5.493998
58.480 5.455528
58.485 5.301785
58.490 5.106496
58.495 5.148666
58.500 5.263896
58.505 5.236606
58.510 4.910434
58.515 5.298005
58.520 5.263964
58.525 5.472476
58.530 5.888719
58.535 5.802728
58.540 6.019726
58.545 6.159443
58.550 5.676896
58.555 5.538702
58.560 5.166774
58.565 5.206261
58.570 5.508194
58.575 5.554144
58.580 5.568513
58.585 5.89186
58.590 6.023123
58.595 6.285009
58.600 5.968493
58.605 5.742091
58.610 6.4731
58.615 6.866701
58.620 6.950872
58.625 7.162116
58.630 7.415497
58.635 8.014194
58.640 7.845926
58.645 6.834878
58.650 6.890611
58.655 6.884476
58.660 7.241972
58.665 7.000551
58.670 6.80596
58.675 7.557506
58.680 8.363817
58.685 8.598229
58.690 8.619318
58.695 8.82381
58.700 9.557949
58.705 9.930683
58.710 10.074184
58.715 10.134566
58.720 10.364082
58.725 10.683898
58.730 10.13628
58.735 9.759129
58.740 9.373891
58.745 9.637923
58.750 9.788665
58.755 10.279191
58.760 10.784395
58.765 11.062811
58.770 10.885867
58.775 10.904541
58.780 10.523956
58.785 10.037007
58.790 10.190741
58.795 10.168612
58.800 10.360991
58.805 10.920455
58.810 10.897573
58.815 11.434816
58.820 12.286645
58.825 12.0417
58.830 11.67909
58.835 11.716348
58.840 11.185878
58.845 10.850827
58.850 10.148689
58.855 9.461758
58.860 9.332821
58.865 9.571874
58.870 9.623864
58.875 10.105251
58.880 10.347632
58.885 10.508121
58.890 10.338798
58.895 10.046703
58.900 9.914042
58.905 9.754207
58.910 9.588852
58.915 9.628564
58.920 9.661399
58.925 9.923602
58.930 9.917041
58.935 9.415531
58.940 9.31913
58.945 9.355697
58.950 8.991754
58.955 8.819973
58.960 8.682709
58.965 8.683681
58.970 9.113946
58.975 8.745401
58.980 8.704618
58.985 8.56889
58.990 8.598058
58.995 8.623139
59.000 8.860133
59.005 8.725222
59.010 8.611208
59.015 8.465278
59.020 8.494472
59.025 8.547202
59.030 8.550783
59.035 8.104372
59.040 7.286571
59.045 7.143777
59.050 6.781164
59.055 6.645653
59.060 6.042626
59.065 5.448451
59.070 5.383999
59.075 5.884321
59.080 5.917208
59.085 5.863973
59.090 5.333536
59.095 4.996374
59.100 5.284748
59.105 5.598231
59.110 6.058438
59.115 6.46516
59.120 6.984226
59.125 7.355095
59.130 7.586179
59.135 7.407657
59.140 7.0782
59.145 6.556451
59.150 6.367183
59.155 6.029744
59.160 6.049791
59.165 5.950025
59.170 5.735742
59.175 5.525876
59.180 5.482575
59.185 5.432878
59.190 5.418095
59.195 5.266036
59.200 5.235549
59.205 5.10955
59.210 5.159002
59.215 5.029919
59.220 5.012962
59.225 5.03537
59.230 4.899091
59.235 4.782887
59.240 4.836144
59.245 4.869421
59.250 4.919746
59.255 4.833329
59.260 5.106424
59.265 5.262127
59.270 5.263651
59.275 5.808481
59.280 5.751066
59.285 5.572199
59.290 5.44563
59.295 4.835846
59.300 4.629144
59.305 4.821558
59.310 4.294817
59.315 4.507149
59.320 4.303208
59.325 4.390434
59.330 4.911819
59.335 5.116491
59.340 4.865809
59.345 4.595803
59.350 4.669599
59.355 5.066902
59.360 4.970249
59.365 5.016213
59.370 4.949566
59.375 4.908153
59.380 4.967133
59.385 4.917363
59.390 4.82715
59.395 5.0493
59.400 4.61731
59.405 4.489945
59.410 4.498248
59.415 4.616698
59.420 4.420802
59.425 4.549881
59.430 4.748466
59.435 5.125111
59.440 5.161199
59.445 5.041259
59.450 4.894419
59.455 4.856217
59.460 4.585468
59.465 4.18802
59.470 3.956563
59.475 3.878825
59.480 4.23257
59.485 4.399173
59.490 4.720015
59.495 4.607079
59.500 4.56998
59.505 4.710075
59.510 4.782556
59.515 4.641174
59.520 4.714179
59.525 4.560784
59.530 4.700412
59.535 4.680352
59.540 5.017513
59.545 5.171235
59.550 5.385445
59.555 5.249372
59.560 5.013459
59.565 4.800432
59.570 4.464707
59.575 3.950379
59.580 3.662732
59.585 3.721464
59.590 3.956658
59.595 4.054821
59.600 4.151593
59.605 4.465289
59.610 4.493498
59.615 4.675417
59.620 4.46165
59.625 4.562989
59.630 4.474983
59.635 4.601021
59.640 4.473139
59.645 4.698009
59.650 4.539972
59.655 4.588158
59.660 4.556748
59.665 4.573081
59.670 4.820476
59.675 5.067793
59.680 5.042076
59.685 5.17122
59.690 4.977308
59.695 4.962837
59.700 4.958092
59.705 4.391752
59.710 3.909065
59.715 4.17378
59.720 4.161595
59.725 4.381132
59.730 4.145368
59.735 3.947106
59.740 4.06391
59.745 4.577892
59.750 4.716737
59.755 4.961205
59.760 4.735901
59.765 4.856238
59.770 5.022857
59.775 5.085279
59.780 4.554501
59.785 4.372714
59.790 4.499089
59.795 4.469238
59.800 4.590233
59.805 4.563746
59.810 4.580902
59.815 4.642229
59.820 4.243124
59.825 4.105817
59.830 4.217746
59.835 4.233449
59.840 4.297862
59.845 4.417957
59.850 4.613615
59.855 4.27917
59.860 4.047493
59.865 3.947056
59.870 3.853266
59.875 3.542478
59.880 3.438454
59.885 3.268662
59.890 3.647469
59.895 3.884532
59.900 3.952843
59.905 3.861475
59.910 4.075536
59.915 4.212967
59.920 3.985975
59.925 3.721981
59.930 3.788575
59.935 3.878742
59.940 3.889048
59.945 3.957876
59.950 4.238854
59.955 4.740775
59.960 4.831082
59.965 4.726767
59.970 4.592003
59.975 4.574979
59.980 4.433586
59.985 3.892564
59.990 3.707949
59.995 3.633155
60.000 3.815485
60.005 3.899624
60.010 4.06844
60.015 4.067539
60.020 4.083218
60.025 4.224349
60.030 4.516618
60.035 4.201449
60.040 4.186281
60.045 4.087572
60.050 4.150373
60.055 4.13369
60.060 4.039604
60.065 3.795913
60.070 3.898821
60.075 4.08206
60.080 3.887569
60.085 3.616872
60.090 3.470986
60.095 3.454569
60.100 3.435214
60.105 3.333216
60.110 3.546653
60.115 3.920156
60.120 3.958078
60.125 3.910743
60.130 4.010093
60.135 4.239734
60.140 4.642497
60.145 4.516472
60.150 4.419959
60.155 4.802072
60.160 4.944798
60.165 4.727657
60.170 4.923984
60.175 5.008171
60.180 4.954517
60.185 4.854557
60.190 4.835687
60.195 4.796064
60.200 4.519851
60.205 4.196766
60.210 3.81095
60.215 3.910738
60.220 3.830827
60.225 3.934853
60.230 4.251894
60.235 4.435027
60.240 4.406218
60.245 4.539306
60.250 4.430822
60.255 4.668878
60.260 4.728673
60.265 4.6046
60.270 4.530118
60.275 4.711802
60.280 4.379697
60.285 4.427564
60.290 4.065991
60.295 3.890655
60.300 3.840226
60.305 3.755293
60.310 3.549964
60.315 3.693953
60.320 3.552662
60.325 3.689673
60.330 3.798575
60.335 4.002995
60.340 4.203742
60.345 4.230475
60.350 4.43345
60.355 4.539918
60.360 4.426845
60.365 4.025569
60.370 4.070074
60.375 3.998709
60.380 4.20938
60.385 4.213963
60.390 4.323401
60.395 4.544798
60.400 4.95141
60.405 4.871597
60.410 4.667824
60.415 4.483933
60.420 4.486152
60.425 4.269433
60.430 4.408265
60.435 4.385832
60.440 4.618464
60.445 5.109086
60.450 5.12617
60.455 5.302128
60.460 5.351431
60.465 4.971363
60.470 5.108631
60.475 5.24453
60.480 5.347359
60.485 5.151825
60.490 4.949249
60.495 4.966845
60.500 5.031042
60.505 4.734181
60.510 4.258761
60.515 3.930934
60.520 4.18353
60.525 4.395202
60.530 4.512385
60.535 4.290212
60.540 4.182552
60.545 4.395057
60.550 4.426263
60.555 4.120507
60.560 4.147317
60.565 4.063137
60.570 4.226345
60.575 4.046102
60.580 3.940561
60.585 3.852288
60.590 4.149648
60.595 3.917791
60.600 3.691558
60.605 3.765921
60.610 3.97459
60.615 4.363286
60.620 4.517602
60.625 4.727838
60.630 4.998567
60.635 5.224267
60.640 5.317313
60.645 5.35247
60.650 5.226017
60.655 5.076529
60.660 4.68899
60.665 4.727873
60.670 4.543273
60.675 4.577178
60.680 4.630783
60.685 4.565654
60.690 4.440502
60.695 4.18228
60.700 3.944134
60.705 3.783945
60.710 3.689517
60.715 3.54236
60.720 3.506715
60.725 3.618564
60.730 3.807054
60.735 3.877852
60.740 4.199243
60.745 4.223631
60.750 4.288152
60.755 4.457409
