!@!!GADDS PLOTSO FILE: Chi integration type
!@!!Title/SampleName: map-c0
!@!!Comment: ?
!@!!User: Bruker Instrument Administrator
!@!!Site: University of Illinois Chicago
!@!!Frame: map-c0_01_000.gfrm
!@!!Wavelengths    1.54184   1.54056   1.54439
!@!!Frame angles: 2Theta: 65.000 Omega: 50.000 Phi: 0.000 Chi: 90.000
!@!!Integration range: 2Theta: 55.000 to 75.000  Gamma: -105.000 to -75.000
!@!!Integration method: bin normalized
!@!N
!@!SS
!@!M
!@!L 0.0 0.0 0.0 0.0
!@!XDegrees
!@!YCounts
55.000 2.888984
55.005 2.797631
55.010 2.774483
55.015 2.504906
55.020 2.221271
55.025 2.137358
55.030 2.321409
55.035 2.518685
55.040 2.730997
55.045 2.733877
55.050 2.899889
55.055 3.011159
55.060 3.040666
55.065 2.964768
55.070 2.963403
55.075 2.772069
55.080 2.563959
55.085 2.32437
55.090 2.476348
55.095 2.598578
55.100 2.685982
55.105 2.961724
55.110 3.111598
55.115 3.283735
55.120 3.342135
55.125 3.206168
55.130 3.153088
55.135 2.795823
55.140 2.68017
55.145 2.730574
55.150 2.818726
55.155 2.882186
55.160 3.136307
55.165 3.30562
55.170 3.376683
55.175 3.272881
55.180 3.270812
55.185 2.97386
55.190 3.036497
55.195 2.888642
55.200 2.880067
55.205 2.833302
55.210 2.968709
55.215 3.160163
55.220 3.428339
55.225 3.318917
55.230 3.324494
55.235 3.284353
55.240 3.513068
55.245 3.429599
55.250 3.396097
55.255 3.421958
55.260 3.066498
55.265 2.973464
55.270 2.948363
55.275 2.861633
55.280 2.851224
55.285 2.58135
55.290 2.789909
55.295 3.267259
55.300 3.272078
55.305 3.263705
55.310 3.502194
55.315 3.596369
55.320 3.750364
55.325 3.723447
55.330 3.602541
55.335 3.795847
55.340 3.722672
55.345 3.363975
55.350 3.45056
55.355 3.551093
55.360 3.273896
55.365 3.507293
55.370 3.460263
55.375 3.59306
55.380 3.999449
55.385 4.137294
55.390 4.110302
55.395 4.007469
55.400 3.870014
55.405 3.79888
55.410 3.688844
55.415 3.693957
55.420 3.413285
55.425 3.78544
55.430 4.112934
55.435 4.02559
55.440 3.957438
55.445 3.631388
55.450 3.238443
55.455 2.987911
55.460 2.525667
55.465 2.362269
55.470 2.451518
55.475 2.619854
55.480 2.954066
55.485 3.008036
55.490 3.33484
55.495 3.448809
55.500 3.390186
55.505 3.703814
55.510 3.689699
55.515 3.556114
55.520 3.472482
55.525 3.371955
55.530 3.558745
55.535 3.610087
55.540 3.526937
55.545 3.580136
55.550 3.636039
55.555 3.69647
55.560 3.565727
55.565 3.531945
55.570 3.517559
55.575 3.331304
55.580 3.192944
55.585 3.063714
55.590 3.21576
55.595 3.31143
55.600 3.261894
55.605 3.250401
55.610 3.289912
55.615 3.300857
55.620 3.830295
55.625 3.831395
55.630 3.605572
55.635 3.609874
55.640 3.536574
55.645 3.571757
55.650 3.566914
55.655 3.248029
55.660 3.385512
55.665 3.292867
55.670 3.137543
55.675 3.37581
55.680 3.382983
55.685 3.339128
55.690 3.36476
55.695 3.413433
55.700 3.415328
55.705 3.222873
55.710 3.134891
55.715 3.182891
55.720 3.26453
55.725 2.925577
55.730 3.04251
55.735 3.511137
55.740 3.576945
55.745 3.58581
55.750 3.430602
55.755 3.267119
55.760 3.166951
55.765 2.871471
55.770 2.808143
55.775 2.959512
55.780 3.09769
55.785 3.345239
55.790 3.678759
55.795 3.753731
55.800 3.69904
55.805 3.587579
55.810 3.540802
55.815 3.336597
55.820 3.27674
55.825 3.029258
55.830 3.330991
55.835 3.648724
55.840 3.571121
55.845 3.43424
55.850 3.293413
55.855 3.192362
55.860 3.232273
55.865 3.057405
55.870 2.840391
55.875 2.811739
55.880 2.852732
55.885 3.001875
55.890 3.024398
55.895 2.799964
55.900 2.852544
55.905 3.071628
55.910 3.092869
55.915 3.361137
55.920 3.540815
55.925 3.725982
55.930 3.931025
55.935 3.85397
55.940 3.763862
55.945 3.779211
55.950 3.356523
55.955 3.140852
55.960 3.099829
55.965 3.07794
55.970 2.789164
55.975 2.730497
55.980 2.827752
55.985 3.130692
55.990 2.988201
55.995 2.682599
56.000 2.545253
56.005 2.984144
56.010 3.213153
56.015 2.89152
56.020 2.68694
56.025 2.894214
56.030 3.406813
56.035 3.258352
56.040 3.0624
56.045 3.080508
56.050 3.247432
56.055 3.670424
56.060 3.557781
56.065 3.674222
56.070 3.653831
56.075 3.752317
56.080 4.014237
56.085 3.9955
56.090 3.93263
56.095 4.182745
56.100 4.205973
56.105 4.329813
56.110 4.20006
56.115 4.101477
56.120 4.118164
56.125 3.898793
56.130 3.65975
56.135 3.651682
56.140 3.776589
56.145 3.744951
56.150 3.676894
56.155 3.625596
56.160 3.729766
56.165 4.051198
56.170 4.020669
56.175 4.019182
56.180 4.107744
56.185 4.092286
56.190 4.055134
56.195 3.863264
56.200 3.729707
56.205 3.789813
56.210 3.604327
56.215 3.473289
56.220 3.441607
56.225 3.822799
56.230 3.591194
56.235 3.423685
56.240 3.36764
56.245 3.33508
56.250 3.388704
56.255 3.240689
56.260 3.028788
56.265 3.316302
56.270 3.485555
56.275 3.394583
56.280 3.444776
56.285 3.609086
56.290 3.781479
56.295 3.586631
56.300 3.315463
56.305 3.205723
56.310 3.437427
56.315 3.568784
56.320 3.587324
56.325 3.487513
56.330 3.863562
56.335 3.755802
56.340 3.922277
56.345 3.782179
56.350 3.57852
56.355 3.364598
56.360 3.269173
56.365 2.96371
56.370 2.880203
56.375 2.535886
56.380 2.412028
56.385 2.5095
56.390 2.771482
56.395 2.921966
56.400 3.084307
56.405 3.321103
56.410 3.367116
56.415 3.505379
56.420 3.347041
56.425 3.383434
56.430 3.530905
56.435 3.7002
56.440 3.85055
56.445 4.311663
56.450 4.374595
56.455 4.367834
56.460 4.142554
56.465 4.14381
56.470 4.250222
56.475 4.213652
56.480 3.877616
56.485 4.027251
56.490 3.857772
56.495 3.889823
56.500 3.820068
56.505 3.542984
56.510 3.750089
56.515 3.730085
56.520 3.618553
56.525 3.634448
56.530 3.659717
56.535 3.557048
56.540 3.425896
56.545 3.303508
56.550 3.379076
56.555 3.40808
56.560 3.342869
56.565 3.277079
56.570 3.239912
56.575 3.429207
56.580 3.420549
56.585 3.149932
56.590 3.338687
56.595 3.60407
56.600 3.574997
56.605 3.522425
56.610 3.220888
56.615 3.169326
56.620 3.173398
56.625 3.133327
56.630 3.019559
56.635 3.228418
56.640 3.467222
56.645 3.739835
56.650 3.720316
56.655 4.049541
56.660 4.133358
56.665 4.026699
56.670 3.699502
56.675 3.754298
56.680 3.870342
56.685 3.844902
56.690 3.660939
56.695 3.69471
56.700 3.691967
56.705 3.584934
56.710 3.209122
56.715 2.916742
56.720 2.94044
56.725 2.905509
56.730 2.927292
56.735 3.068289
56.740 3.202836
56.745 3.343225
56.750 3.792098
56.755 4.154219
56.760 4.005763
56.765 4.06905
56.770 4.112281
56.775 3.908938
56.780 3.916138
56.785 3.363121
56.790 3.47696
56.795 3.512852
56.800 3.065871
56.805 2.976311
56.810 2.986882
56.815 3.077553
56.820 2.879199
56.825 2.819683
56.830 2.917093
56.835 3.220446
56.840 3.4248
56.845 3.237673
56.850 3.589518
56.855 3.766435
56.860 3.501646
56.865 3.411473
56.870 3.455975
56.875 3.529915
56.880 3.649601
56.885 3.500839
56.890 3.227668
56.895 3.384364
56.900 3.377676
56.905 3.44277
56.910 3.6235
56.915 3.546508
56.920 3.59107
56.925 3.926035
56.930 4.034368
56.935 4.109901
56.940 3.873192
56.945 3.743779
56.950 3.720624
56.955 3.379551
56.960 3.156553
56.965 2.919801
56.970 2.811805
56.975 2.856008
56.980 3.011903
56.985 2.905808
56.990 3.053378
56.995 3.351724
57.000 3.497478
57.005 3.409151
57.010 3.388427
57.015 3.406693
57.020 3.419685
57.025 3.297951
57.030 3.234598
57.035 3.136803
57.040 3.19447
57.045 3.047115
57.050 3.430183
57.055 3.961111
57.060 4.057754
57.065 4.015778
57.070 4.171628
57.075 4.20845
57.080 4.392631
57.085 4.046042
57.090 3.987503
57.095 4.207582
57.100 4.108417
57.105 4.054151
57.110 4.052613
57.115 4.03101
57.120 4.056348
57.125 3.567292
57.130 3.292776
57.135 3.286078
57.140 3.21344
57.145 3.205756
57.150 3.15825
57.155 3.141497
57.160 3.297324
57.165 3.671256
57.170 3.896319
57.175 3.796839
57.180 3.918459
57.185 3.6788
57.190 3.746553
57.195 3.763897
57.200 3.4675
57.205 3.588457
57.210 3.715276
57.215 3.636887
57.220 3.888796
57.225 3.756952
57.230 3.978093
57.235 4.026752
57.240 3.971741
57.245 3.879236
57.250 3.878811
57.255 3.995558
57.260 4.139247
57.265 3.811781
57.270 3.867396
57.275 3.867995
57.280 4.018498
57.285 3.913366
57.290 3.578545
57.295 3.537337
57.300 3.619423
57.305 3.629673
57.310 3.407367
57.315 3.142193
57.320 3.384436
57.325 3.784289
57.330 3.733043
57.335 3.493855
57.340 3.178502
57.345 3.171693
57.350 3.007159
57.355 2.490543
57.360 2.234922
57.365 2.171827
57.370 2.280244
57.375 2.910883
57.380 3.141041
57.385 3.271804
57.390 3.304571
57.395 3.429368
57.400 3.707819
57.405 3.634232
57.410 3.219839
57.415 3.301538
57.420 3.563075
57.425 3.660094
57.430 3.833834
57.435 3.865178
57.440 4.044263
57.445 4.336102
57.450 4.359838
57.455 4.210777
57.460 4.149517
57.465 3.868666
57.470 3.497083
57.475 3.303608
57.480 3.265066
57.485 3.277302
57.490 3.40844
57.495 3.485666
57.500 3.537961
57.505 3.882326
57.510 3.856691
57.515 3.732357
57.520 3.876116
57.525 3.812812
57.530 3.548387
57.535 3.308912
57.540 3.081069
57.545 2.998454
57.550 3.149901
57.555 3.241302
57.560 3.548693
57.565 3.904921
57.570 4.056192
57.575 4.377302
57.580 4.413359
57.585 4.19899
57.590 3.958553
57.595 3.687173
57.600 3.673538
57.605 3.787514
57.610 3.614608
57.615 3.604439
57.620 3.640422
57.625 3.736108
57.630 3.914679
57.635 4.22691
57.640 4.13951
57.645 4.044878
57.650 4.130538
57.655 4.104661
57.660 4.134549
57.665 3.889963
57.670 3.58437
57.675 3.574787
57.680 3.722956
57.685 3.509272
57.690 3.42757
57.695 3.16734
57.700 3.067323
57.705 3.082506
57.710 3.200481
57.715 2.894681
57.720 3.184727
57.725 3.304358
57.730 3.338709
57.735 3.653361
57.740 3.626353
57.745 3.495305
57.750 3.819188
57.755 3.733726
57.760 4.044027
57.765 4.122866
57.770 4.116837
57.775 4.270507
57.780 4.412703
57.785 4.071324
57.790 4.171079
57.795 3.897755
57.800 3.903574
57.805 4.143414
57.810 4.343791
57.815 4.345634
57.820 4.80351
57.825 5.127761
57.830 5.310362
57.835 5.413736
57.840 5.048805
57.845 5.039881
57.850 5.239421
57.855 5.132851
57.860 5.077577
57.865 5.209516
57.870 5.252414
57.875 5.456801
57.880 5.453749
57.885 5.323757
57.890 5.099893
57.895 5.222694
57.900 5.746999
57.905 6.218129
57.910 6.264552
57.915 6.41527
57.920 6.562643
57.925 6.457277
57.930 6.341692
57.935 6.299154
57.940 6.229611
57.945 6.468565
57.950 6.630969
57.955 6.768786
57.960 6.819632
57.965 6.595073
57.970 6.197992
57.975 6.181206
57.980 6.310038
57.985 6.499827
57.990 6.456776
57.995 6.688091
58.000 7.222867
58.005 7.709203
58.010 7.996309
58.015 7.927206
58.020 7.878429
58.025 8.217393
58.030 8.137118
58.035 7.64891
58.040 7.785526
58.045 7.622938
58.050 7.619161
58.055 7.846224
58.060 7.614325
58.065 7.930146
58.070 8.418749
58.075 8.598251
58.080 9.104924
58.085 9.043551
58.090 9.145021
58.095 9.589367
58.100 9.538435
58.105 9.054435
58.110 8.850407
58.115 8.962321
58.120 9.027244
58.125 8.878708
58.130 8.424655
58.135 8.556103
58.140 8.768475
58.145 8.680953
58.150 8.395298
58.155 8.491443
58.160 8.471789
58.165 8.778715
58.170 8.879236
58.175 9.128095
58.180 9.224627
58.185 9.469592
58.190 9.492971
58.195 9.812337
58.200 9.801869
58.205 9.796632
58.210 9.243291
58.215 8.713462
58.220 8.816599
58.225 8.811346
58.230 8.461815
58.235 8.304596
58.240 8.126333
58.245 8.521194
58.250 8.758473
58.255 8.368371
58.260 8.477286
58.265 8.296061
58.270 8.008288
58.275 8.157022
58.280 8.133672
58.285 7.911629
58.290 7.649081
58.295 7.844305
58.300 8.21274
58.305 8.581285
58.310 8.418304
58.315 8.394503
58.320 8.23787
58.325 8.113583
58.330 7.563771
58.335 7.529019
58.340 7.126932
58.345 6.816104
58.350 6.405694
58.355 6.667141
58.360 6.683758
58.365 6.375921
58.370 5.845886
58.375 5.948998
58.380 5.715302
58.385 5.607118
58.390 5.153435
58.395 5.105352
58.400 5.575768
58.405 5.740906
58.410 5.474535
58.415 5.55013
58.420 5.786517
58.425 5.892618
58.430 5.644535
58.435 5.309515
58.440 4.904809
58.445 4.81198
58.450 4.744981
58.455 4.836148
58.460 4.684952
58.465 4.783985
58.470 4.85732
58.475 5.154104
58.480 5.151031
58.485 5.048665
58.490 5.175323
58.495 5.439359
58.500 5.197896
58.505 5.004553
58.510 4.961959
58.515 5.150001
58.520 5.346426
58.525 4.932233
58.530 4.744874
58.535 4.7943
58.540 4.743367
58.545 4.628407
58.550 4.262307
58.555 3.944692
58.560 3.881358
58.565 3.76162
58.570 3.773107
58.575 3.883522
58.580 3.88839
58.585 3.944772
58.590 3.92085
58.595 3.864978
58.600 4.086477
58.605 3.946943
58.610 3.97682
58.615 4.067526
58.620 4.224466
58.625 4.373538
58.630 4.266448
58.635 4.185693
58.640 4.441609
58.645 4.602239
58.650 4.468831
58.655 4.517038
58.660 4.521338
58.665 4.60948
58.670 4.466945
58.675 4.105511
58.680 3.99936
58.685 4.138472
58.690 4.045099
58.695 3.895643
58.700 3.961913
58.705 3.877586
58.710 3.749675
58.715 3.722417
58.720 3.694422
58.725 3.523723
58.730 3.495256
58.735 3.33142
58.740 3.690049
58.745 3.939366
58.750 3.961569
58.755 3.910003
58.760 4.037459
58.765 4.172624
58.770 4.406731
58.775 4.296767
58.780 4.40286
58.785 4.280997
58.790 4.276705
58.795 4.477297
58.800 4.342725
58.805 4.006277
58.810 3.868201
58.815 3.779912
58.820 3.955068
58.825 3.891922
58.830 3.51751
58.835 3.301185
58.840 3.045159
58.845 3.136011
58.850 3.109296
58.855 3.305121
58.860 3.616307
58.865 3.936449
58.870 4.101824
58.875 4.412505
58.880 4.41908
58.885 4.28662
58.890 3.862059
58.895 3.818106
58.900 3.749017
58.905 3.618283
58.910 3.446718
58.915 3.39795
58.920 3.231458
58.925 3.445125
58.930 3.671069
58.935 3.975471
58.940 4.176619
58.945 4.172828
58.950 4.480414
58.955 4.755545
58.960 4.84092
58.965 4.338146
58.970 4.494174
58.975 4.8098
58.980 5.171409
58.985 5.300402
58.990 5.194883
58.995 4.80391
59.000 4.776874
59.005 4.546794
59.010 4.439693
59.015 4.437659
59.020 4.018639
59.025 4.004678
59.030 4.104042
59.035 4.409979
59.040 4.054211
59.045 3.647804
59.050 3.551491
59.055 3.828596
59.060 3.709928
59.065 3.676629
59.070 3.52512
59.075 3.738347
59.080 4.006868
59.085 3.630045
59.090 3.583147
59.095 3.610289
59.100 3.629068
59.105 3.433499
59.110 3.342179
59.115 3.513025
59.120 3.662954
59.125 3.756688
59.130 3.861584
59.135 3.849548
59.140 3.885686
59.145 3.879561
59.150 3.832347
59.155 3.586317
59.160 3.490022
59.165 3.597356
59.170 3.481767
59.175 3.714447
59.180 3.792207
59.185 3.771689
59.190 4.207045
59.195 4.28504
59.200 4.210795
59.205 4.336858
59.210 4.181738
59.215 4.04454
59.220 4.018981
59.225 3.710816
59.230 3.533301
59.235 3.533566
59.240 3.619331
59.245 3.58601
59.250 3.77471
59.255 4.117854
59.260 4.135977
59.265 4.144228
59.270 4.314218
59.275 4.358108
59.280 4.141711
59.285 3.773456
59.290 3.785919
59.295 3.81955
59.300 3.929594
59.305 3.792723
59.310 3.762028
59.315 3.924933
59.320 3.973936
59.325 3.531242
59.330 3.655715
59.335 3.701086
59.340 3.484977
59.345 3.526911
59.350 3.714167
59.355 3.914169
59.360 4.401918
59.365 4.309164
59.370 4.450695
59.375 4.941125
59.380 5.054966
59.385 5.094801
59.390 4.895113
59.395 4.866388
59.400 4.861826
59.405 4.730838
59.410 4.448884
59.415 4.653608
59.420 4.878488
59.425 4.836522
59.430 4.58168
59.435 4.741838
59.440 4.588973
59.445 4.480789
59.450 3.998467
59.455 3.87763
59.460 3.996169
59.465 4.206204
59.470 3.962353
59.475 3.916074
59.480 3.870678
59.485 3.75762
59.490 3.648649
59.495 3.766178
59.500 3.590957
59.505 3.812695
59.510 4.007849
59.515 4.024832
59.520 4.13114
59.525 4.220605
59.530 3.765998
59.535 3.723317
59.540 3.560343
59.545 3.731797
59.550 4.149786
59.555 4.269109
59.560 4.398536
59.565 4.914389
59.570 5.067142
59.575 5.069391
59.580 4.553021
59.585 4.133379
59.590 4.040603
59.595 4.124826
59.600 3.938369
59.605 3.935288
59.610 3.768441
59.615 3.963683
59.620 4.123147
59.625 4.189573
59.630 4.01314
59.635 3.940752
59.640 3.896475
59.645 4.132121
59.650 4.189825
59.655 4.040792
59.660 3.731508
59.665 3.779698
59.670 4.006383
59.675 3.905574
59.680 3.875531
59.685 4.004936
59.690 3.940599
59.695 4.322835
59.700 4.500585
59.705 4.313536
59.710 4.48856
59.715 4.817713
59.720 4.947514
59.725 4.981255
59.730 4.92835
59.735 4.905807
59.740 4.92345
59.745 4.877257
59.750 4.409917
59.755 4.17892
59.760 4.341025
59.765 4.259644
59.770 4.255985
59.775 4.417088
59.780 4.456396
59.785 4.748143
59.790 4.933334
59.795 4.939509
59.800 4.861074
59.805 4.885629
59.810 4.86081
59.815 5.077337
59.820 5.064736
59.825 5.018375
59.830 4.998049
59.835 5.136721
59.840 5.191654
59.845 5.077571
59.850 4.792218
59.855 4.839723
59.860 4.696433
59.865 4.355884
59.870 3.931345
59.875 3.819883
59.880 3.675008
59.885 3.752761
59.890 3.663911
59.895 3.667883
59.900 3.883323
59.905 4.044981
59.910 4.066023
59.915 4.014817
59.920 3.903085
59.925 4.16439
59.930 4.49458
59.935 4.150248
59.940 3.975478
59.945 3.740703
59.950 3.974178
59.955 3.88025
59.960 3.521937
59.965 3.27738
59.970 3.499286
59.975 3.875451
59.980 4.084377
59.985 3.937634
59.990 3.986608
59.995 3.890229
60.000 3.977816
60.005 4.067776
60.010 3.953135
60.015 4.16256
60.020 4.282419
60.025 4.280598
60.030 4.456566
60.035 4.69828
60.040 4.567288
60.045 4.442705
60.050 4.415885
60.055 4.40942
60.060 4.303196
60.065 4.102116
60.070 3.959931
60.075 4.135428
60.080 4.200272
60.085 4.25863
60.090 4.438017
60.095 4.377877
60.100 4.377924
60.105 4.19575
60.110 3.936094
60.115 3.69046
60.120 3.279461
60.125 3.228899
60.130 3.411442
60.135 3.355386
60.140 3.509913
60.145 3.73784
60.150 4.44362
60.155 5.093921
60.160 5.104961
60.165 5.288098
60.170 5.376213
60.175 5.29951
60.180 5.04904
60.185 4.393365
60.190 4.285465
60.195 4.153664
60.200 3.972181
60.205 3.938015
60.210 3.797758
60.215 4.028075
60.220 4.076009
60.225 3.746518
60.230 3.75727
60.235 3.830924
60.240 3.872689
60.245 4.010638
60.250 3.859231
60.255 3.861205
60.260 4.091794
60.265 3.946719
60.270 3.689534
60.275 3.762308
60.280 3.611463
60.285 3.75838
60.290 3.744309
60.295 3.830823
60.300 4.256413
60.305 4.388906
60.310 4.756873
60.315 5.006207
60.320 5.250205
60.325 4.973566
60.330 4.486744
60.335 4.33786
60.340 4.498932
60.345 4.087622
60.350 4.043041
60.355 4.251515
60.360 4.730632
60.365 4.722717
60.370 4.459252
60.375 4.328302
60.380 4.352668
60.385 4.057621
60.390 3.708583
60.395 3.851242
60.400 3.869269
60.405 3.800799
60.410 3.788011
60.415 3.785789
60.420 3.856234
60.425 3.707092
60.430 3.668145
60.435 3.821648
60.440 3.817349
60.445 3.884519
60.450 4.24219
60.455 4.50596
60.460 4.570714
60.465 4.335969
60.470 4.598849
60.475 4.733657
60.480 4.613944
60.485 4.51509
60.490 4.694879
60.495 4.814631
60.500 5.032162
60.505 4.882203
60.510 5.087226
60.515 5.19684
60.520 4.706431
60.525 4.208969
60.530 3.817457
60.535 3.912734
60.540 4.14464
60.545 3.777094
60.550 3.802126
60.555 4.137084
60.560 4.545437
60.565 5.318052
60.570 5.157247
60.575 4.882046
60.580 4.741704
60.585 4.736357
60.590 5.009624
60.595 4.901784
60.600 4.234772
60.605 4.503805
60.610 4.856729
60.615 5.202038
60.620 5.071598
60.625 4.819695
60.630 5.052288
60.635 5.157894
60.640 4.786749
60.645 4.839283
60.650 4.976379
60.655 5.000082
60.660 5.232273
60.665 5.031393
60.670 5.064399
60.675 4.994649
60.680 4.778422
60.685 4.464422
60.690 4.466138
60.695 4.210965
60.700 4.143561
60.705 4.37247
60.710 4.711053
60.715 4.899191
60.720 5.233571
60.725 5.079158
60.730 4.816164
60.735 4.535145
60.740 4.607647
60.745 4.412638
60.750 4.137351
60.755 4.236398
60.760 4.262937
60.765 4.44227
