!@!!GADDS PLOTSO FILE: Chi integration type
!@!!Title/SampleName: map-b1
!@!!Comment: ?
!@!!User: Bruker Instrument Administrator
!@!!Site: University of Illinois Chicago
!@!!Frame: map-b1_01_000.gfrm
!@!!Wavelengths    1.54184   1.54056   1.54439
!@!!Frame angles: 2Theta: 65.000 Omega: 50.000 Phi: 0.000 Chi: 90.000
!@!!Integration range: 2Theta: 55.000 to 75.000  Gamma: -105.000 to -75.000
!@!!Integration method: bin normalized
!@!N
!@!SS
!@!M
!@!L 0.0 0.0 0.0 0.0
!@!XDegrees
!@!YCounts
55.000 5.250658
55.005 5.575015
55.010 5.529314
55.015 5.42668
55.020 5.498111
55.025 5.362799
55.030 4.965279
55.035 4.40751
55.040 4.224287
55.045 4.334468
55.050 4.556638
55.055 4.460506
55.060 4.657829
55.065 5.081853
55.070 5.247604
55.075 5.42033
55.080 5.084905
55.085 4.97857
55.090 5.05952
55.095 4.757634
55.100 4.681114
55.105 4.766024
55.110 4.636637
55.115 4.690751
55.120 4.45518
55.125 4.464895
55.130 4.34065
55.135 4.182194
55.140 4.065419
55.145 4.096886
55.150 4.289202
55.155 4.651369
55.160 4.783431
55.165 5.030161
55.170 5.186148
55.175 5.303962
55.180 5.287834
55.185 5.350977
55.190 5.032781
55.195 4.765118
55.200 4.692312
55.205 4.403901
55.210 4.550742
55.215 4.339444
55.220 4.377552
55.225 4.640491
55.230 4.805169
55.235 4.998557
55.240 5.18728
55.245 5.311534
55.250 5.546498
55.255 5.445125
55.260 5.324389
55.265 5.128391
55.270 4.884444
55.275 4.70625
55.280 4.371866
55.285 4.076168
55.290 3.98739
55.295 4.2397
55.300 4.506054
55.305 4.500754
55.310 4.36805
55.315 4.511218
55.320 4.532016
55.325 4.437716
55.330 4.402768
55.335 4.39237
55.340 4.814274
55.345 5.148928
55.350 5.23713
55.355 5.675385
55.360 5.633428
55.365 5.341067
55.370 5.577299
55.375 5.287752
55.380 5.052443
55.385 4.881264
55.390 4.425471
55.395 4.515025
55.400 4.545604
55.405 4.211952
55.410 4.090417
55.415 4.193972
55.420 4.27902
55.425 4.353581
55.430 4.485335
55.435 5.070157
55.440 5.148683
55.445 5.057406
55.450 5.073096
55.455 5.226685
55.460 5.32335
55.465 5.010395
55.470 4.800266
55.475 5.14279
55.480 5.362332
55.485 5.253747
55.490 5.076209
55.495 5.093303
55.500 4.996249
55.505 4.518262
55.510 4.550612
55.515 4.755158
55.520 5.091223
55.525 4.910424
55.530 5.180835
55.535 5.715979
55.540 5.945948
55.545 5.529538
55.550 5.105873
55.555 4.561481
55.560 4.693237
55.565 4.368317
55.570 3.960741
55.575 4.148922
55.580 4.297772
55.585 4.492002
55.590 4.915034
55.595 4.846134
55.600 4.978387
55.605 5.015131
55.610 4.960566
55.615 5.261964
55.620 5.168939
55.625 5.241985
55.630 5.215075
55.635 5.097459
55.640 5.224747
55.645 4.95848
55.650 5.022768
55.655 5.34658
55.660 5.102228
55.665 5.17894
55.670 5.29248
55.675 5.489525
55.680 5.550991
55.685 5.236372
55.690 4.848111
55.695 4.802938
55.700 4.830081
55.705 4.585358
55.710 4.538407
55.715 4.661511
55.720 4.846545
55.725 5.142921
55.730 5.049732
55.735 5.247227
55.740 5.348713
55.745 5.20251
55.750 5.326853
55.755 5.409558
55.760 5.404366
55.765 5.296315
55.770 5.20586
55.775 5.197126
55.780 5.588913
55.785 5.29281
55.790 5.070413
55.795 4.871004
55.800 4.94478
55.805 5.063306
55.810 4.711039
55.815 4.222478
55.820 4.240346
55.825 4.550275
55.830 4.686955
55.835 4.426951
55.840 4.27785
55.845 4.395536
55.850 4.543143
55.855 4.809798
55.860 4.862698
55.865 4.844445
55.870 4.95529
55.875 5.185479
55.880 5.289388
55.885 5.334471
55.890 5.003425
55.895 5.006245
55.900 5.052906
55.905 5.235577
55.910 5.117027
55.915 4.849834
55.920 4.869019
55.925 5.012253
55.930 5.045977
55.935 4.817546
55.940 4.889626
55.945 4.962235
55.950 5.149376
55.955 5.098857
55.960 5.013025
55.965 4.993367
55.970 5.002809
55.975 4.974793
55.980 4.962192
55.985 4.764717
55.990 4.776668
55.995 4.760704
56.000 4.832509
56.005 4.930282
56.010 4.909978
56.015 5.225352
56.020 5.292098
56.025 5.347762
56.030 5.544654
56.035 5.581573
56.040 5.256302
56.045 4.934067
56.050 4.966866
56.055 5.12386
56.060 5.006453
56.065 4.772132
56.070 4.769237
56.075 5.258607
56.080 5.49489
56.085 5.276464
56.090 5.228949
56.095 5.210738
56.100 5.366686
56.105 4.987822
56.110 4.461251
56.115 4.268161
56.120 4.160116
56.125 4.243342
56.130 4.264919
56.135 4.331568
56.140 4.748616
56.145 4.733308
56.150 4.829357
56.155 4.8388
56.160 4.764446
56.165 4.353453
56.170 4.165705
56.175 4.314108
56.180 4.544446
56.185 4.333229
56.190 4.468614
56.195 4.744136
56.200 4.768943
56.205 4.611939
56.210 4.349205
56.215 4.23973
56.220 4.283458
56.225 4.12608
56.230 4.205943
56.235 4.535795
56.240 4.568274
56.245 4.653778
56.250 4.886279
56.255 5.010557
56.260 4.966837
56.265 5.126973
56.270 5.31959
56.275 5.67228
56.280 5.957153
56.285 6.062531
56.290 6.027785
56.295 6.258634
56.300 6.123368
56.305 6.242309
56.310 6.088367
56.315 5.611107
56.320 5.51337
56.325 5.739824
56.330 6.010262
56.335 6.143395
56.340 5.531111
56.345 5.452464
56.350 5.624422
56.355 5.541692
56.360 5.332841
56.365 4.708426
56.370 4.675101
56.375 4.808319
56.380 5.093633
56.385 5.047787
56.390 4.768633
56.395 4.89953
56.400 4.793625
56.405 4.522027
56.410 4.577454
56.415 4.294764
56.420 4.278478
56.425 4.188883
56.430 3.88544
56.435 3.851178
56.440 4.228258
56.445 4.431591
56.450 4.896353
56.455 4.998854
56.460 5.071809
56.465 5.398002
56.470 5.230785
56.475 5.210936
56.480 4.928519
56.485 4.839357
56.490 4.812702
56.495 4.724083
56.500 4.604971
56.505 4.869933
56.510 4.906923
56.515 4.974655
56.520 4.807579
56.525 4.843134
56.530 5.01412
56.535 5.054138
56.540 5.141906
56.545 5.09658
56.550 5.144215
56.555 5.046424
56.560 5.044243
56.565 4.870491
56.570 4.717057
56.575 4.665209
56.580 4.585132
56.585 4.54855
56.590 4.672293
56.595 4.420302
56.600 4.627759
56.605 4.763385
56.610 4.754901
56.615 4.604858
56.620 4.820997
56.625 4.878574
56.630 4.957449
56.635 4.67834
56.640 4.550694
56.645 4.550006
56.650 4.646939
56.655 4.413092
56.660 4.504382
56.665 4.942276
56.670 4.82507
56.675 4.715887
56.680 4.697062
56.685 4.575384
56.690 4.689943
56.695 4.64992
56.700 4.495171
56.705 4.894465
56.710 5.058303
56.715 4.999514
56.720 4.876262
56.725 4.910724
56.730 4.819096
56.735 5.023156
56.740 4.917922
56.745 4.788881
56.750 5.032722
56.755 5.102409
56.760 5.232486
56.765 5.248524
56.770 4.958218
56.775 4.878625
56.780 4.971163
56.785 4.885295
56.790 4.852396
56.795 4.934144
56.800 5.013157
56.805 5.439543
56.810 5.850811
56.815 5.911802
56.820 5.921436
56.825 5.870861
56.830 5.643618
56.835 5.515291
56.840 5.454479
56.845 5.269869
56.850 5.335363
56.855 5.156057
56.860 4.960588
56.865 4.973912
56.870 4.891035
56.875 4.809605
56.880 4.593694
56.885 4.65907
56.890 4.732585
56.895 4.73487
56.900 4.53893
56.905 4.548738
56.910 4.528652
56.915 4.763463
56.920 4.300784
56.925 4.398355
56.930 4.760281
56.935 5.068344
56.940 5.233197
56.945 5.252913
56.950 5.228019
56.955 5.440359
56.960 5.090364
56.965 5.030391
56.970 5.083524
56.975 5.016403
56.980 4.999288
56.985 5.198515
56.990 5.468277
56.995 5.682613
57.000 5.690375
57.005 5.273705
57.010 5.102259
57.015 5.051435
57.020 5.16638
57.025 5.017405
57.030 4.653522
57.035 4.565591
57.040 4.818881
57.045 4.891386
57.050 4.761806
57.055 4.663795
57.060 4.91195
57.065 5.019258
57.070 5.151156
57.075 5.101727
57.080 4.96032
57.085 4.910428
57.090 4.85922
57.095 5.30319
57.100 5.338896
57.105 5.471152
57.110 5.316411
57.115 5.492815
57.120 5.483684
57.125 5.732092
57.130 5.629351
57.135 5.74769
57.140 5.830313
57.145 5.71438
57.150 5.704551
57.155 5.817073
57.160 5.110594
57.165 4.448847
57.170 4.14995
57.175 3.836959
57.180 4.043506
57.185 4.097914
57.190 4.180511
57.195 4.528746
57.200 5.056178
57.205 5.136211
57.210 5.63267
57.215 5.709633
57.220 5.616545
57.225 5.783166
57.230 5.898428
57.235 5.719519
57.240 5.795984
57.245 5.35294
57.250 5.093449
57.255 5.002328
57.260 4.852304
57.265 4.998171
57.270 5.217559
57.275 5.304018
57.280 5.959343
57.285 6.494047
57.290 6.451582
57.295 6.968305
57.300 6.82388
57.305 6.85341
57.310 6.782032
57.315 6.245334
57.320 5.883402
57.325 5.724541
57.330 5.1489
57.335 5.493697
57.340 5.218562
57.345 5.204482
57.350 5.025289
57.355 4.96721
57.360 5.03587
57.365 4.744269
57.370 4.83045
57.375 5.128088
57.380 5.412081
57.385 5.61436
57.390 5.990641
57.395 6.138003
57.400 6.154154
57.405 5.881669
57.410 5.704514
57.415 5.663191
57.420 5.675539
57.425 5.16715
57.430 5.09709
57.435 5.224704
57.440 4.887888
57.445 4.736952
57.450 4.620453
57.455 4.555328
57.460 4.977229
57.465 4.933821
57.470 4.712365
57.475 4.90436
57.480 4.86677
57.485 4.830925
57.490 5.154127
57.495 4.806116
57.500 4.566826
57.505 4.486116
57.510 4.294611
57.515 4.259435
57.520 4.336496
57.525 4.133443
57.530 4.241016
57.535 4.480654
57.540 4.618381
57.545 4.694127
57.550 4.951964
57.555 5.074131
57.560 5.298321
57.565 5.321713
57.570 5.376763
57.575 5.532023
57.580 5.538711
57.585 5.677491
57.590 5.301969
57.595 5.091204
57.600 5.376389
57.605 5.432977
57.610 5.271286
57.615 4.895329
57.620 4.590539
57.625 4.534977
57.630 4.725773
57.635 4.747623
57.640 4.520518
57.645 4.589182
57.650 4.736321
57.655 4.848628
57.660 5.098974
57.665 4.983413
57.670 4.919413
57.675 5.107038
57.680 5.335939
57.685 5.550557
57.690 5.555755
57.695 5.412227
57.700 5.31193
57.705 5.185184
57.710 5.43278
57.715 5.29053
57.720 5.104177
57.725 5.285384
57.730 5.24171
57.735 5.247823
57.740 5.365453
57.745 5.116725
57.750 5.226483
57.755 5.293608
57.760 5.124593
57.765 5.342076
57.770 5.716864
57.775 5.731025
57.780 5.770828
57.785 5.602994
57.790 5.834078
57.795 6.092271
57.800 6.178712
57.805 6.390405
57.810 6.368732
57.815 6.559028
57.820 6.667719
57.825 6.586451
57.830 6.258376
57.835 5.983184
57.840 6.195616
57.845 6.456982
57.850 6.487134
57.855 6.815815
57.860 6.930612
57.865 7.014793
57.870 7.138339
57.875 6.780964
57.880 6.852365
57.885 6.775981
57.890 6.517911
57.895 6.54995
57.900 6.531713
57.905 6.751551
57.910 6.980236
57.915 7.13838
57.920 7.625834
57.925 8.005539
57.930 8.237568
57.935 8.651191
57.940 8.601348
57.945 9.029997
57.950 8.734234
57.955 8.295538
57.960 8.007607
57.965 8.065545
57.970 8.270602
57.975 8.059314
57.980 7.882809
57.985 8.602711
57.990 8.79287
57.995 8.74388
58.000 8.511438
58.005 8.166305
58.010 8.674677
58.015 8.832566
58.020 8.74101
58.025 9.144753
58.030 8.978236
58.035 9.020617
58.040 9.065212
58.045 9.471783
58.050 9.641292
58.055 9.768716
58.060 10.059392
58.065 10.917569
58.070 11.670384
58.075 12.091052
58.080 11.935899
58.085 12.497965
58.090 13.050003
58.095 13.805357
58.100 13.739346
58.105 13.505626
58.110 13.696219
58.115 14.02583
58.120 13.860632
58.125 13.815145
58.130 13.410086
58.135 13.961793
58.140 14.283888
58.145 14.459791
58.150 14.406201
58.155 14.138419
58.160 13.998308
58.165 13.925261
58.170 13.6547
58.175 13.555887
58.180 13.962057
58.185 13.883492
58.190 14.033892
58.195 14.516052
58.200 14.625977
58.205 14.795192
58.210 14.74896
58.215 14.662332
58.220 15.252721
58.225 15.306758
58.230 15.220275
58.235 15.344506
58.240 15.503135
58.245 15.528855
58.250 15.357581
58.255 15.362359
58.260 15.392667
58.265 14.782135
58.270 14.385818
58.275 14.217109
58.280 14.592189
58.285 14.649313
58.290 14.56895
58.295 14.442765
58.300 14.531508
58.305 14.234199
58.310 14.163246
58.315 13.655032
58.320 13.669498
58.325 13.487634
58.330 13.173273
58.335 13.514405
58.340 13.665764
58.345 13.176162
58.350 12.750832
58.355 12.238474
58.360 11.56857
58.365 11.788739
58.370 11.722789
58.375 10.934294
58.380 10.591347
58.385 10.342402
58.390 10.119018
58.395 10.090261
58.400 9.501663
58.405 9.458264
58.410 9.61342
58.415 9.817684
58.420 9.670559
58.425 9.786241
58.430 9.975514
58.435 9.520461
58.440 9.213254
58.445 9.003181
58.450 8.742434
58.455 8.38944
58.460 8.092755
58.465 8.140411
58.470 8.228989
58.475 8.197182
58.480 8.385753
58.485 8.436978
58.490 8.724251
58.495 8.536898
58.500 8.337179
58.505 8.30224
58.510 8.320393
58.515 8.488166
58.520 8.291344
58.525 8.002363
58.530 7.474615
58.535 7.040498
58.540 7.174695
58.545 6.892699
58.550 6.49655
58.555 6.189681
58.560 6.06645
58.565 6.406218
58.570 6.584593
58.575 6.292704
58.580 6.082493
58.585 5.848505
58.590 6.113297
58.595 6.303339
58.600 5.928217
58.605 5.840664
58.610 5.911554
58.615 6.147223
58.620 6.387385
58.625 6.096449
58.630 5.425491
58.635 5.511009
58.640 5.517122
58.645 5.389588
58.650 5.175925
58.655 5.141475
58.660 5.425171
58.665 5.914345
58.670 6.058592
58.675 6.142089
58.680 6.456373
58.685 6.551897
58.690 6.819378
58.695 6.71715
58.700 6.419616
58.705 6.397341
58.710 5.936228
58.715 5.500688
58.720 5.439268
58.725 5.20331
58.730 4.970115
58.735 4.86927
58.740 4.950394
58.745 5.538907
58.750 5.947191
58.755 6.064015
58.760 5.859392
58.765 5.897328
58.770 5.939383
58.775 5.945448
58.780 5.663521
58.785 5.546092
58.790 5.65489
58.795 5.587157
58.800 5.734685
58.805 5.809124
58.810 5.611189
58.815 5.582217
58.820 5.622256
58.825 5.611619
58.830 5.649643
58.835 5.797386
58.840 5.621806
58.845 5.339028
58.850 5.374024
58.855 5.107602
58.860 5.258454
58.865 5.441706
58.870 5.289399
58.875 5.462925
58.880 5.679836
58.885 5.537605
58.890 5.444602
58.895 5.446303
58.900 5.495705
58.905 5.149808
58.910 5.32635
58.915 5.61486
58.920 6.108159
58.925 6.293796
58.930 6.03834
58.935 5.957523
58.940 6.229965
58.945 5.849677
58.950 5.330564
58.955 5.061182
58.960 4.867825
58.965 4.76681
58.970 4.731784
58.975 4.714749
58.980 5.128562
58.985 5.210588
58.990 4.914675
58.995 5.180515
59.000 5.311107
59.005 5.198348
59.010 5.052997
59.015 4.835703
59.020 5.018432
59.025 5.201068
59.030 5.142787
59.035 5.163274
59.040 5.114871
59.045 5.035665
59.050 5.126307
59.055 5.124722
59.060 5.360637
59.065 5.176372
59.070 5.16007
59.075 5.437516
59.080 5.596246
59.085 5.507094
59.090 5.165563
59.095 5.309626
59.100 5.721245
59.105 5.838081
59.110 5.839239
59.115 5.79867
59.120 6.079509
59.125 5.919629
59.130 5.432559
59.135 5.38709
59.140 5.097535
59.145 5.031972
59.150 5.381655
59.155 5.552053
59.160 5.666026
59.165 5.662739
59.170 5.472825
59.175 5.656148
59.180 5.603922
59.185 4.911147
59.190 4.580839
59.195 4.537981
59.200 4.662742
59.205 4.625357
59.210 4.401493
59.215 3.995317
59.220 4.21741
59.225 4.355192
59.230 4.335774
59.235 4.290405
59.240 4.285882
59.245 4.830395
59.250 5.223496
59.255 5.424517
59.260 5.437096
59.265 5.553511
59.270 5.415178
59.275 5.31364
59.280 5.049819
59.285 5.339119
59.290 5.479351
59.295 5.431235
59.300 5.550039
59.305 5.747175
59.310 5.902953
59.315 6.026711
59.320 5.656138
59.325 5.663072
59.330 5.799263
59.335 5.848292
59.340 5.884071
59.345 5.940339
59.350 5.718127
59.355 5.692849
59.360 5.633173
59.365 5.626607
59.370 5.485645
59.375 5.552861
59.380 5.654515
59.385 5.58037
59.390 5.64345
59.395 5.431929
59.400 5.366035
59.405 5.194328
59.410 4.960312
59.415 4.770923
59.420 4.883348
59.425 4.756632
59.430 4.945489
59.435 4.950909
59.440 5.157969
59.445 5.274583
59.450 5.359116
59.455 5.604638
59.460 5.638487
59.465 5.57575
59.470 5.548674
59.475 5.525482
59.480 5.556392
59.485 5.802611
59.490 5.456792
59.495 5.227947
59.500 5.003597
59.505 4.625058
59.510 4.518769
59.515 4.260458
59.520 3.971119
59.525 4.201045
59.530 4.388317
59.535 4.549532
59.540 4.7982
59.545 4.69851
59.550 4.772015
59.555 4.743863
59.560 4.89064
59.565 4.946327
59.570 4.995549
59.575 5.048978
59.580 5.104983
59.585 5.337681
59.590 5.052468
59.595 4.949289
59.600 4.861863
59.605 4.842824
59.610 4.699332
59.615 4.752316
59.620 4.893439
59.625 5.207463
59.630 4.980352
59.635 4.924691
59.640 5.088034
59.645 5.384551
59.650 5.122661
59.655 5.033642
59.660 5.098845
59.665 5.486222
59.670 5.597147
59.675 5.285597
59.680 5.12542
59.685 5.097648
59.690 5.212717
59.695 5.224409
59.700 5.06286
59.705 5.043622
59.710 5.222666
59.715 5.541506
59.720 5.838205
59.725 5.60539
59.730 5.652043
59.735 5.477946
59.740 5.545577
59.745 5.563406
59.750 5.303607
59.755 5.329878
59.760 5.578619
59.765 5.466851
59.770 5.529393
59.775 5.430633
59.780 5.2065
59.785 5.157413
59.790 5.127808
59.795 4.735946
59.800 4.471085
59.805 4.548951
59.810 4.620702
59.815 4.505044
59.820 4.402617
59.825 4.216345
59.830 4.323705
59.835 4.486794
59.840 4.586563
59.845 4.59361
59.850 5.013287
59.855 5.008952
59.860 5.062369
59.865 5.460623
59.870 5.479286
59.875 5.363645
59.880 5.486535
59.885 5.563966
59.890 5.750085
59.895 5.656361
59.900 5.618539
59.905 5.403504
59.910 5.508859
59.915 5.567642
59.920 5.378716
59.925 5.473742
59.930 5.54833
59.935 5.667142
59.940 5.812111
59.945 5.700465
59.950 5.63968
59.955 5.702927
59.960 5.498251
59.965 5.451705
59.970 5.277859
59.975 5.195757
59.980 5.28467
59.985 5.259964
59.990 5.211071
59.995 5.292117
60.000 5.264495
60.005 5.294816
60.010 5.486439
60.015 5.354524
60.020 5.365356
60.025 5.40501
60.030 5.579669
60.035 5.627192
60.040 5.743281
60.045 5.610754
60.050 5.632293
60.055 5.411942
60.060 5.271023
60.065 5.26108
60.070 5.173978
60.075 4.920149
60.080 4.972079
60.085 4.942924
60.090 4.991262
60.095 4.731933
60.100 4.629625
60.105 4.836049
60.110 5.227029
60.115 4.942738
60.120 4.894024
60.125 4.902399
60.130 5.093403
60.135 4.967877
60.140 5.073066
60.145 5.00574
60.150 5.211591
60.155 5.212088
60.160 5.685864
60.165 5.68514
60.170 5.721213
60.175 5.524323
60.180 5.489558
60.185 5.331627
60.190 5.303894
60.195 4.993382
60.200 4.865484
60.205 4.960257
60.210 5.301505
60.215 5.475483
60.220 5.847616
60.225 6.01127
60.230 6.083311
60.235 6.410226
60.240 6.45362
60.245 6.144375
60.250 6.155746
60.255 6.079946
60.260 5.955054
60.265 6.01037
60.270 5.847198
60.275 5.630719
60.280 5.515602
60.285 5.250909
60.290 5.015419
60.295 5.160028
60.300 5.245811
60.305 5.358366
60.310 5.499382
60.315 5.409102
60.320 5.595072
60.325 6.006927
60.330 5.787532
60.335 5.574116
60.340 5.397745
60.345 5.370407
60.350 5.267374
60.355 5.351092
60.360 5.411335
60.365 5.669792
60.370 5.937922
60.375 5.988911
60.380 5.87909
60.385 5.841923
60.390 5.354417
60.395 5.003085
60.400 4.459774
60.405 4.115627
60.410 3.990985
60.415 4.094533
60.420 4.450686
60.425 4.951238
60.430 5.138792
60.435 5.54945
60.440 5.598455
60.445 5.47518
60.450 5.606364
60.455 5.34778
60.460 5.147159
60.465 5.234368
60.470 5.119736
60.475 5.507661
60.480 5.736205
60.485 5.628379
60.490 6.012426
60.495 6.27215
60.500 6.004163
60.505 6.024821
60.510 5.827192
60.515 5.548736
60.520 5.201262
60.525 4.633135
60.530 4.269583
60.535 4.279859
60.540 4.288057
60.545 4.38739
60.550 4.597778
60.555 4.948469
60.560 5.246101
60.565 5.486663
60.570 5.758706
60.575 5.936107
60.580 5.831565
60.585 5.946415
60.590 5.883601
60.595 5.771009
60.600 5.602564
60.605 5.585835
60.610 5.305486
60.615 5.159756
60.620 5.239464
60.625 5.35763
60.630 5.852781
60.635 5.954235
60.640 6.030794
60.645 6.253453
60.650 6.388947
60.655 6.144704
60.660 6.088437
60.665 5.479182
60.670 5.395657
60.675 4.995017
60.680 4.872919
60.685 4.80747
60.690 4.975093
60.695 4.866967
60.700 4.937661
60.705 4.942043
60.710 5.0434
60.715 5.337144
60.720 5.208727
60.725 5.169024
60.730 5.143013
60.735 5.172446
60.740 5.224496
60.745 5.094319
