!@!!GADDS PLOTSO FILE: Chi integration type
!@!!Title/SampleName: map-0
!@!!Comment: ?
!@!!User: Bruker Instrument Administrator
!@!!Site: University of Illinois Chicago
!@!!Frame: map-0_01_000.gfrm
!@!!Wavelengths    1.54184   1.54056   1.54439
!@!!Frame angles: 2Theta: 65.000 Omega: 50.000 Phi: 0.000 Chi: 90.000
!@!!Integration range: 2Theta: 55.000 to 75.000  Gamma: -105.000 to -75.000
!@!!Integration method: bin normalized
!@!N
!@!SS
!@!M
!@!L 0.0 0.0 0.0 0.0
!@!XDegrees
!@!YCounts
55.000 4.842907
55.005 4.952774
55.010 5.277204
55.015 5.222615
55.020 5.08164
55.025 4.953308
55.030 4.690348
55.035 4.350757
55.040 4.253115
55.045 4.051822
55.050 4.136257
55.055 4.113364
55.060 3.876983
55.065 4.190688
55.070 4.319148
55.075 4.437946
55.080 4.723209
55.085 4.770758
55.090 4.823706
55.095 4.56708
55.100 4.353731
55.105 4.314941
55.110 4.128087
55.115 4.198288
55.120 4.386837
55.125 4.516462
55.130 4.733675
55.135 4.729953
55.140 4.568984
55.145 4.542172
55.150 4.082212
55.155 3.946422
55.160 4.091311
55.165 3.862735
55.170 3.987749
55.175 3.839803
55.180 4.049634
55.185 4.377846
55.190 4.501538
55.195 4.571465
55.200 4.75835
55.205 4.73502
55.210 4.789992
55.215 4.541953
55.220 4.530843
55.225 4.396068
55.230 4.574481
55.235 4.664223
55.240 4.796011
55.245 4.754919
55.250 4.721928
55.255 4.910861
55.260 4.582476
55.265 4.323303
55.270 4.256182
55.275 4.223887
55.280 4.243001
55.285 4.066288
55.290 4.24847
55.295 4.787466
55.300 4.814126
55.305 4.709726
55.310 4.66591
55.315 5.048513
55.320 5.317917
55.325 5.17954
55.330 4.954553
55.335 5.359616
55.340 5.853012
55.345 5.837001
55.350 5.425766
55.355 4.88832
55.360 4.83996
55.365 4.961082
55.370 4.200602
55.375 3.826515
55.380 3.605089
55.385 3.618899
55.390 4.029179
55.395 3.767522
55.400 3.628201
55.405 3.745913
55.410 3.678018
55.415 4.046844
55.420 4.231462
55.425 4.393842
55.430 4.581902
55.435 4.85393
55.440 5.19551
55.445 5.166092
55.450 5.312286
55.455 5.238821
55.460 4.916691
55.465 4.64346
55.470 4.553728
55.475 4.479556
55.480 4.573991
55.485 4.349236
55.490 4.036274
55.495 4.405147
55.500 4.280407
55.505 4.1556
55.510 4.139254
55.515 3.921
55.520 3.926652
55.525 4.135739
55.530 3.98157
55.535 4.494416
55.540 4.829487
55.545 5.0916
55.550 5.409758
55.555 5.356486
55.560 5.236554
55.565 5.148837
55.570 4.744831
55.575 4.607242
55.580 4.344794
55.585 4.270385
55.590 4.051144
55.595 4.54993
55.600 4.751863
55.605 4.824974
55.610 4.749448
55.615 4.829556
55.620 4.909958
55.625 5.250535
55.630 5.138684
55.635 5.366444
55.640 5.595948
55.645 5.498953
55.650 5.412579
55.655 5.272894
55.660 4.774756
55.665 4.607943
55.670 4.415167
55.675 4.512904
55.680 4.571838
55.685 4.469037
55.690 4.98336
55.695 5.305447
55.700 4.931121
55.705 4.589506
55.710 4.42117
55.715 4.546922
55.720 4.54574
55.725 4.450779
55.730 4.412827
55.735 4.529095
55.740 4.845276
55.745 4.908598
55.750 5.138079
55.755 5.18687
55.760 5.070752
55.765 5.059269
55.770 4.843758
55.775 4.551133
55.780 4.190947
55.785 3.814629
55.790 3.986026
55.795 3.537657
55.800 3.737552
55.805 4.206523
55.810 4.194442
55.815 4.295391
55.820 4.418839
55.825 4.535492
55.830 4.546484
55.835 4.44407
55.840 4.394504
55.845 4.586798
55.850 4.56905
55.855 4.231376
55.860 4.093378
55.865 4.240523
55.870 4.152201
55.875 4.077321
55.880 4.035615
55.885 4.402311
55.890 4.73121
55.895 4.564239
55.900 4.842364
55.905 4.842876
55.910 4.993829
55.915 5.323315
55.920 5.075792
55.925 5.113946
55.930 5.218222
55.935 5.05268
55.940 5.085446
55.945 4.842075
55.950 4.372948
55.955 4.171488
55.960 4.29286
55.965 4.367955
55.970 4.346296
55.975 4.347912
55.980 4.411334
55.985 4.65263
55.990 4.732852
55.995 4.405578
56.000 4.459648
56.005 4.395534
56.010 4.205433
56.015 4.199594
56.020 4.270439
56.025 4.621876
56.030 4.623663
56.035 4.639772
56.040 4.688406
56.045 4.703804
56.050 4.620563
56.055 4.298656
56.060 3.887993
56.065 3.712481
56.070 3.450266
56.075 3.32364
56.080 3.312898
56.085 3.194103
56.090 3.514684
56.095 3.83309
56.100 4.16838
56.105 4.25625
56.110 4.299659
56.115 4.500034
56.120 4.791936
56.125 4.555166
56.130 4.549342
56.135 4.787699
56.140 4.970834
56.145 5.267478
56.150 5.474264
56.155 5.470377
56.160 5.649349
56.165 5.362681
56.170 5.248265
56.175 5.028903
56.180 4.760615
56.185 4.566023
56.190 4.536191
56.195 4.163753
56.200 3.939814
56.205 3.795622
56.210 3.859092
56.215 3.744549
56.220 3.541172
56.225 3.550183
56.230 3.952223
56.235 4.573778
56.240 4.626144
56.245 4.747632
56.250 4.962067
56.255 4.948031
56.260 4.925504
56.265 5.021997
56.270 4.86748
56.275 5.122078
56.280 5.253399
56.285 5.120375
56.290 5.420971
56.295 5.631726
56.300 5.607832
56.305 5.710031
56.310 5.314519
56.315 5.4909
56.320 5.529338
56.325 5.52986
56.330 5.207376
56.335 4.573541
56.340 4.402134
56.345 4.583042
56.350 4.415882
56.355 4.52523
56.360 4.616893
56.365 4.960563
56.370 5.056012
56.375 4.840076
56.380 4.655443
56.385 4.315324
56.390 4.13172
56.395 3.955579
56.400 4.027052
56.405 4.504637
56.410 4.880753
56.415 5.064756
56.420 5.23742
56.425 5.384878
56.430 5.498151
56.435 5.424869
56.440 5.329994
56.445 5.285916
56.450 5.02126
56.455 5.077701
56.460 4.875766
56.465 4.826916
56.470 4.580618
56.475 4.317651
56.480 4.362196
56.485 4.575727
56.490 4.497588
56.495 4.286751
56.500 3.953083
56.505 4.044655
56.510 4.243199
56.515 4.188523
56.520 4.114002
56.525 4.235098
56.530 4.567903
56.535 4.674818
56.540 4.692412
56.545 4.483658
56.550 4.17653
56.555 4.090324
56.560 4.029808
56.565 4.125816
56.570 4.132092
56.575 4.196629
56.580 4.321795
56.585 4.642062
56.590 4.994078
56.595 4.997775
56.600 4.877943
56.605 4.853078
56.610 4.635206
56.615 4.736263
56.620 4.688782
56.625 4.282866
56.630 4.40097
56.635 4.366178
56.640 4.386048
56.645 4.179646
56.650 4.15143
56.655 4.558756
56.660 4.749699
56.665 4.644533
56.670 4.604723
56.675 4.837349
56.680 4.837617
56.685 4.587403
56.690 4.304304
56.695 4.334675
56.700 4.657547
56.705 4.792611
56.710 4.892386
56.715 5.044565
56.720 5.110314
56.725 5.089768
56.730 4.750346
56.735 4.396629
56.740 4.278753
56.745 4.130645
56.750 3.941703
56.755 3.447876
56.760 3.795431
56.765 3.870015
56.770 3.866617
56.775 3.96601
56.780 3.958194
56.785 4.26315
56.790 4.808244
56.795 4.660265
56.800 4.773924
56.805 4.739622
56.810 4.951123
56.815 5.043363
56.820 4.892417
56.825 4.54408
56.830 4.361639
56.835 4.394562
56.840 4.54926
56.845 4.348466
56.850 4.750959
56.855 4.753371
56.860 4.635025
56.865 4.918305
56.870 4.942547
56.875 5.139164
56.880 5.112086
56.885 4.85977
56.890 4.882777
56.895 5.005234
56.900 5.103304
56.905 4.928585
56.910 4.900751
56.915 5.308281
56.920 5.279709
56.925 5.299973
56.930 5.48974
56.935 5.48682
56.940 5.420816
56.945 5.4159
56.950 5.598978
56.955 5.802247
56.960 5.828585
56.965 5.63122
56.970 5.716343
56.975 5.895994
56.980 5.571711
56.985 5.084182
56.990 4.706358
56.995 4.457675
57.000 4.288385
57.005 4.09865
57.010 4.072285
57.015 4.190483
57.020 4.275976
57.025 4.575826
57.030 4.638536
57.035 4.937891
57.040 4.985326
57.045 5.060952
57.050 4.928777
57.055 4.860166
57.060 5.109867
57.065 5.258592
57.070 5.004338
57.075 5.101964
57.080 5.058229
57.085 5.046965
57.090 5.073252
57.095 4.783368
57.100 4.845531
57.105 4.672289
57.110 4.563621
57.115 4.931286
57.120 4.998394
57.125 5.218944
57.130 5.572298
57.135 5.379254
57.140 5.509007
57.145 5.372715
57.150 5.281171
57.155 5.302075
57.160 5.225951
57.165 4.757104
57.170 4.790032
57.175 4.651156
57.180 4.658081
57.185 4.59973
57.190 4.517514
57.195 4.594564
57.200 5.055166
57.205 5.132333
57.210 5.13936
57.215 5.045295
57.220 5.250318
57.225 5.640291
57.230 5.71158
57.235 5.573578
57.240 5.813486
57.245 5.791145
57.250 5.818021
57.255 5.367981
57.260 4.840556
57.265 4.563544
57.270 4.435962
57.275 4.291511
57.280 4.463155
57.285 4.554177
57.290 4.849118
57.295 4.896383
57.300 4.679716
57.305 4.818422
57.310 4.753638
57.315 4.744405
57.320 4.276934
57.325 4.121405
57.330 4.354257
57.335 4.499332
57.340 4.2695
57.345 4.141501
57.350 4.382178
57.355 4.752834
57.360 4.652987
57.365 4.758268
57.370 4.898822
57.375 5.066794
57.380 5.118171
57.385 4.742106
57.390 4.894413
57.395 5.347127
57.400 5.330489
57.405 5.31326
57.410 5.579026
57.415 5.912415
57.420 5.992024
57.425 5.447312
57.430 5.156111
57.435 4.940491
57.440 4.591321
57.445 4.456135
57.450 4.133017
57.455 4.284058
57.460 4.677214
57.465 4.798818
57.470 5.038128
57.475 4.90937
57.480 5.018903
57.485 5.005818
57.490 4.977084
57.495 4.852299
57.500 4.944616
57.505 4.901625
57.510 5.24952
57.515 5.04961
57.520 5.443595
57.525 5.321903
57.530 5.164065
57.535 5.287407
57.540 5.325291
57.545 4.964145
57.550 4.696925
57.555 4.539726
57.560 4.701879
57.565 4.429265
57.570 4.124257
57.575 4.177648
57.580 4.430765
57.585 4.916396
57.590 4.988701
57.595 5.171639
57.600 5.330625
57.605 5.132787
57.610 4.804173
57.615 4.616232
57.620 4.626694
57.625 4.3764
57.630 4.163429
57.635 4.329164
57.640 4.972642
57.645 5.370406
57.650 5.419369
57.655 5.248221
57.660 5.119901
57.665 4.930701
57.670 4.801876
57.675 4.560717
57.680 4.25926
57.685 3.967222
57.690 4.116023
57.695 4.1499
57.700 4.58766
57.705 4.70339
57.710 4.592012
57.715 4.886947
57.720 4.945749
57.725 5.001074
57.730 5.108896
57.735 5.074728
57.740 5.074899
57.745 5.034846
57.750 5.011679
57.755 4.991395
57.760 4.847397
57.765 4.962377
57.770 4.955905
57.775 5.065435
57.780 5.187371
57.785 5.0925
57.790 5.027796
57.795 5.236071
57.800 5.0997
57.805 5.227745
57.810 5.141022
57.815 5.299247
57.820 5.817465
57.825 6.00364
57.830 6.161049
57.835 5.957864
57.840 5.567087
57.845 5.566816
57.850 5.412158
57.855 5.089561
57.860 4.902736
57.865 4.67892
57.870 4.736944
57.875 4.684698
57.880 4.723641
57.885 4.792844
57.890 4.817577
57.895 4.738665
57.900 4.877301
57.905 5.021607
57.910 5.295568
57.915 5.221823
57.920 5.273937
57.925 5.379104
57.930 5.79169
57.935 6.10585
57.940 6.066813
57.945 6.04717
57.950 6.024076
57.955 5.949151
57.960 5.739749
57.965 5.358058
57.970 5.220808
57.975 5.845074
57.980 5.746823
57.985 5.537745
57.990 5.636175
57.995 5.736247
58.000 5.857899
58.005 5.623705
58.010 5.319474
58.015 5.425488
58.020 5.579285
58.025 5.222246
58.030 4.881346
58.035 4.484547
58.040 4.292256
58.045 4.34958
58.050 4.443859
58.055 4.58461
58.060 4.927887
58.065 5.454358
58.070 5.952703
58.075 6.011734
58.080 5.503852
58.085 5.280234
58.090 4.947175
58.095 4.849709
58.100 5.156978
58.105 5.175357
58.110 5.218089
58.115 5.488736
58.120 5.871827
58.125 5.867212
58.130 5.801457
58.135 5.250837
58.140 5.402935
58.145 5.417855
58.150 5.316507
58.155 5.17138
58.160 5.384162
58.165 5.198778
58.170 5.059754
58.175 5.216242
58.180 5.720166
58.185 6.016247
58.190 6.189963
58.195 6.461614
58.200 6.473789
58.205 6.840068
58.210 6.66586
58.215 6.113633
58.220 5.834182
58.225 5.959953
58.230 6.274943
58.235 6.61333
58.240 6.402524
58.245 6.114857
58.250 6.272739
58.255 5.848272
58.260 5.338546
58.265 4.607122
58.270 4.33562
58.275 4.105751
58.280 4.311814
58.285 4.649833
58.290 5.132962
58.295 5.347064
58.300 5.678537
58.305 5.930922
58.310 6.419596
58.315 6.579345
58.320 6.507794
58.325 6.65642
58.330 7.044703
58.335 7.11478
58.340 7.371599
58.345 7.272665
58.350 7.081537
58.355 7.322401
58.360 7.079018
58.365 6.837656
58.370 6.40091
58.375 6.039707
58.380 5.984431
58.385 6.265553
58.390 6.179259
58.395 6.285494
58.400 6.064855
58.405 6.015294
58.410 5.722239
58.415 5.303973
58.420 4.806497
58.425 5.302873
58.430 5.545232
58.435 6.112497
58.440 6.738812
58.445 7.123181
58.450 8.011415
58.455 8.567618
58.460 8.563695
58.465 8.404273
58.470 8.423976
58.475 8.352934
58.480 8.15321
58.485 7.986888
58.490 8.59469
58.495 8.694009
58.500 8.862823
58.505 8.878651
58.510 8.996965
58.515 9.296242
58.520 9.184991
58.525 8.765607
58.530 8.932106
58.535 9.538852
58.540 9.898799
58.545 10.390871
58.550 10.442443
58.555 10.568865
58.560 10.404049
58.565 10.958026
58.570 10.956848
58.575 11.020715
58.580 11.293393
58.585 11.914783
58.590 12.448363
58.595 12.992321
58.600 12.922424
58.605 12.989992
58.610 13.13065
58.615 12.895537
58.620 12.311734
58.625 12.055872
58.630 11.613159
58.635 11.490341
58.640 11.310984
58.645 10.881938
58.650 11.145468
58.655 11.354705
58.660 12.031744
58.665 13.185156
58.670 13.173794
58.675 13.325857
58.680 13.599841
58.685 13.848536
58.690 14.351109
58.695 14.039859
58.700 13.226166
58.705 13.165709
58.710 13.456393
58.715 13.393787
58.720 13.280915
58.725 13.347903
58.730 13.534695
58.735 14.315592
58.740 14.459086
58.745 14.489838
58.750 15.009145
58.755 14.8426
58.760 14.227403
58.765 13.701269
58.770 13.349124
58.775 13.613637
58.780 13.644176
58.785 13.501344
58.790 13.826262
58.795 13.964257
58.800 13.837987
58.805 14.131422
58.810 13.783622
58.815 13.308493
58.820 12.931914
58.825 12.823679
58.830 12.361623
58.835 11.60995
58.840 10.873632
58.845 10.700035
58.850 10.955086
58.855 11.101357
58.860 10.901638
58.865 11.370006
58.870 12.295185
58.875 12.219572
58.880 11.984617
58.885 11.919632
58.890 11.270988
58.895 11.05033
58.900 10.776411
58.905 9.999633
58.910 9.872813
58.915 9.946607
58.920 9.629225
58.925 10.040195
58.930 9.933007
58.935 9.607456
58.940 9.563313
58.945 9.227443
58.950 8.49089
58.955 8.32392
58.960 7.995236
58.965 7.917495
58.970 7.987836
58.975 8.18107
58.980 8.185138
58.985 8.394331
58.990 8.211775
58.995 8.370642
59.000 8.065598
59.005 8.184113
59.010 7.641347
59.015 7.673042
59.020 7.758121
59.025 7.438503
59.030 7.131176
59.035 7.06707
59.040 6.61059
59.045 6.692588
59.050 6.617541
59.055 6.651499
59.060 6.599838
59.065 6.564057
59.070 6.647037
59.075 6.298148
59.080 6.18749
59.085 6.302422
59.090 6.316465
59.095 6.243141
59.100 6.137558
59.105 5.816883
59.110 6.120775
59.115 6.086322
59.120 5.868717
59.125 5.672412
59.130 5.801069
59.135 5.736568
59.140 5.537301
59.145 5.195757
59.150 5.178558
59.155 5.09134
59.160 5.093464
59.165 5.269788
59.170 5.652207
59.175 5.879634
59.180 5.987565
59.185 6.151521
59.190 6.250877
59.195 6.267079
59.200 5.73827
59.205 5.621852
59.210 5.737261
59.215 5.68572
59.220 5.699864
59.225 5.563462
59.230 5.461342
59.235 5.977818
59.240 5.91684
59.245 5.687665
59.250 5.494912
59.255 5.241952
59.260 5.663884
59.265 5.787282
59.270 5.620118
59.275 5.598019
59.280 5.509994
59.285 6.176342
59.290 6.06547
59.295 5.75999
59.300 5.446082
59.305 5.398726
59.310 5.511688
59.315 5.277092
59.320 4.744497
59.325 4.816575
59.330 5.133427
59.335 5.437747
59.340 5.385508
59.345 5.379721
59.350 5.667017
59.355 5.480459
59.360 5.407041
59.365 5.550473
59.370 5.68845
59.375 5.720985
59.380 5.538326
59.385 5.380669
59.390 5.329287
59.395 5.276097
59.400 4.989717
59.405 4.761959
59.410 4.929981
59.415 5.198092
59.420 5.492413
59.425 5.626461
59.430 5.446795
59.435 5.446698
59.440 5.471874
59.445 5.138797
59.450 4.821416
59.455 4.642964
59.460 4.767927
59.465 4.902849
59.470 4.838708
59.475 4.65183
59.480 4.681528
59.485 4.928574
59.490 4.898018
59.495 4.968124
59.500 5.1201
59.505 5.067852
59.510 5.136039
59.515 5.095117
59.520 5.263176
59.525 5.158483
59.530 4.770168
59.535 4.840684
59.540 4.843957
59.545 4.797155
59.550 4.869371
59.555 4.868158
59.560 4.952631
59.565 5.35938
59.570 5.12368
59.575 5.320359
59.580 5.588811
59.585 5.540516
59.590 5.228291
59.595 5.131271
59.600 5.043506
59.605 5.090775
59.610 4.583179
59.615 4.404664
59.620 4.681575
59.625 5.304002
59.630 5.356219
59.635 5.273982
59.640 5.740985
59.645 6.068247
59.650 5.911932
59.655 5.55434
59.660 5.125566
59.665 4.92514
59.670 4.682485
59.675 4.2992
59.680 4.267109
59.685 4.331254
59.690 4.264604
59.695 4.455731
59.700 4.688495
59.705 4.608226
59.710 4.744922
59.715 4.864542
59.720 4.959314
59.725 4.945494
59.730 5.066001
59.735 5.306476
59.740 5.456123
59.745 5.243494
59.750 5.677382
59.755 5.936374
59.760 6.203485
59.765 5.827638
59.770 5.409211
59.775 5.364765
59.780 5.562158
59.785 5.4255
59.790 5.089985
59.795 4.832771
59.800 4.976441
59.805 5.449745
59.810 5.535003
59.815 5.381512
59.820 5.334857
59.825 5.480849
59.830 5.657907
59.835 5.666214
59.840 5.855267
59.845 5.864252
59.850 5.628699
59.855 5.408222
59.860 5.410344
59.865 5.359657
59.870 5.046752
59.875 4.439869
59.880 4.744915
59.885 4.835552
59.890 4.86775
59.895 5.133601
59.900 5.570951
59.905 5.793409
59.910 5.821274
59.915 5.494467
59.920 5.532213
59.925 5.627951
59.930 5.446493
59.935 4.980919
59.940 4.91538
59.945 4.886517
59.950 4.970002
59.955 4.891375
59.960 4.898556
59.965 4.772542
59.970 5.022365
59.975 5.013629
59.980 4.925397
59.985 4.835576
59.990 5.122955
59.995 5.324151
60.000 5.756535
60.005 5.909829
60.010 6.382518
60.015 6.612222
60.020 6.72965
60.025 6.699182
60.030 6.212241
60.035 5.904576
60.040 5.64293
60.045 5.303321
60.050 5.554143
60.055 5.615582
60.060 5.49529
60.065 5.626016
60.070 5.554998
60.075 5.404988
60.080 5.516182
60.085 5.351108
60.090 5.308582
60.095 5.35288
60.100 5.713085
60.105 5.780062
60.110 6.114031
60.115 6.060976
60.120 5.908286
60.125 5.983105
60.130 6.181216
60.135 5.887579
60.140 6.01989
60.145 6.006652
60.150 5.994102
60.155 6.116801
60.160 6.043732
60.165 5.760567
60.170 5.473273
60.175 5.096462
60.180 5.020075
60.185 4.841415
60.190 4.912606
60.195 4.794572
60.200 5.017287
60.205 5.229037
60.210 5.166059
60.215 4.883298
60.220 4.490256
60.225 4.283641
60.230 4.009723
60.235 3.619323
60.240 3.425311
60.245 3.439868
60.250 3.55808
60.255 4.021461
60.260 4.229123
60.265 4.436795
60.270 4.672798
60.275 5.009335
60.280 5.036674
60.285 5.070369
60.290 4.830681
60.295 4.671132
60.300 4.646106
60.305 4.533384
60.310 4.545709
60.315 4.630152
60.320 4.704088
60.325 4.916411
60.330 5.014204
60.335 5.085423
60.340 5.304558
60.345 5.330803
60.350 5.535656
60.355 5.081419
60.360 4.829752
60.365 4.583364
60.370 4.421347
60.375 4.224094
60.380 4.222334
60.385 3.855871
60.390 4.432489
60.395 4.574699
60.400 4.64969
60.405 4.465715
60.410 4.578154
60.415 4.542606
60.420 4.923872
60.425 4.963133
60.430 5.018297
60.435 5.160326
60.440 5.624852
60.445 5.348892
60.450 5.198677
60.455 4.908403
60.460 4.686612
60.465 4.638308
60.470 4.833712
60.475 4.979347
60.480 5.177677
60.485 5.279263
60.490 5.503854
60.495 5.640964
60.500 5.569126
60.505 5.46542
60.510 5.257053
60.515 5.18765
60.520 5.34301
60.525 5.058557
60.530 4.860801
60.535 5.011716
60.540 4.777495
60.545 4.474426
60.550 4.420163
60.555 4.777642
60.560 4.990889
60.565 5.236482
60.570 5.008017
60.575 5.13073
60.580 5.08629
60.585 4.817825
60.590 4.534525
60.595 4.758088
60.600 4.547382
60.605 4.707857
60.610 4.612917
60.615 4.800805
60.620 5.10237
60.625 4.784866
60.630 4.494483
60.635 4.311661
60.640 4.234316
60.645 4.19777
60.650 4.016454
60.655 3.866717
60.660 3.891862
60.665 3.846288
60.670 4.164937
60.675 4.342796
60.680 4.709072
60.685 4.837297
60.690 4.866489
60.695 5.341187
60.700 5.570617
60.705 5.344526
60.710 5.101599
60.715 4.867342
60.720 4.95344
60.725 5.161466
60.730 4.991322
60.735 4.984059
60.740 5.085073
60.745 5.46486
