!@!!GADDS PLOTSO FILE: Chi integration type
!@!!Title/SampleName: map-c9
!@!!Comment: ?
!@!!User: Bruker Instrument Administrator
!@!!Site: University of Illinois Chicago
!@!!Frame: map-c9_01_000.gfrm
!@!!Wavelengths    1.54184   1.54056   1.54439
!@!!Frame angles: 2Theta: 65.000 Omega: 50.000 Phi: 0.000 Chi: 90.000
!@!!Integration range: 2Theta: 55.000 to 75.000  Gamma: -105.000 to -75.000
!@!!Integration method: bin normalized
!@!N
!@!SS
!@!M
!@!L 0.0 0.0 0.0 0.0
!@!XDegrees
!@!YCounts
55.000 4.013471
55.005 4.139556
55.010 4.183827
55.015 4.679819
55.020 4.844292
55.025 4.821077
55.030 4.636902
55.035 4.454291
55.040 4.350375
55.045 4.017639
55.050 3.788271
55.055 3.521562
55.060 3.657386
55.065 3.483116
55.070 3.529037
55.075 3.651133
55.080 3.607217
55.085 3.799332
55.090 4.235546
55.095 4.392341
55.100 4.780564
55.105 5.090963
55.110 5.270206
55.115 5.697207
55.120 5.490582
55.125 5.530737
55.130 5.354037
55.135 5.085429
55.140 4.808962
55.145 4.433941
55.150 3.922688
55.155 3.567144
55.160 3.289586
55.165 3.056391
55.170 3.023403
55.175 3.341068
55.180 3.55251
55.185 3.96017
55.190 4.30999
55.195 4.246176
55.200 4.553844
55.205 4.632026
55.210 4.353756
55.215 4.1816
55.220 4.000797
55.225 3.629831
55.230 3.666809
55.235 3.663552
55.240 3.927102
55.245 4.185462
55.250 4.221892
55.255 4.268536
55.260 4.532079
55.265 4.576734
55.270 4.572745
55.275 4.297391
55.280 4.055952
55.285 3.970631
55.290 4.076666
55.295 4.143332
55.300 3.869828
55.305 3.873011
55.310 3.965988
55.315 4.484481
55.320 4.486875
55.325 4.507226
55.330 4.49742
55.335 4.544603
55.340 4.520784
55.345 4.434521
55.350 4.257946
55.355 4.351835
55.360 4.284494
55.365 4.283705
55.370 4.315399
55.375 4.309118
55.380 4.501103
55.385 4.523862
55.390 4.227852
55.395 4.032705
55.400 4.022475
55.405 3.926139
55.410 3.815803
55.415 3.588797
55.420 3.738577
55.425 3.745272
55.430 3.800156
55.435 3.924238
55.440 4.001482
55.445 4.05615
55.450 4.107236
55.455 4.283179
55.460 4.696701
55.465 4.848386
55.470 4.889355
55.475 5.000076
55.480 5.010589
55.485 4.863694
55.490 4.396484
55.495 4.181293
55.500 3.925779
55.505 3.702698
55.510 3.468199
55.515 3.458307
55.520 3.669068
55.525 3.930248
55.530 4.264715
55.535 4.55917
55.540 4.817862
55.545 5.211108
55.550 5.218753
55.555 5.072464
55.560 4.884696
55.565 4.514672
55.570 4.736229
55.575 4.505899
55.580 4.187317
55.585 4.135923
55.590 4.440421
55.595 4.475809
55.600 4.382024
55.605 4.190243
55.610 4.049695
55.615 4.075501
55.620 4.022594
55.625 3.875575
55.630 3.740597
55.635 3.628458
55.640 3.915365
55.645 4.014861
55.650 3.789251
55.655 3.521745
55.660 4.061729
55.665 4.433145
55.670 4.364579
55.675 4.126225
55.680 4.578881
55.685 4.944164
55.690 5.508691
55.695 5.258238
55.700 5.179745
55.705 5.608937
55.710 5.985939
55.715 5.495977
55.720 4.901272
55.725 4.539956
55.730 4.542464
55.735 4.503697
55.740 4.149915
55.745 4.038675
55.750 4.641814
55.755 4.787425
55.760 4.874577
55.765 5.146204
55.770 5.179333
55.775 5.230443
55.780 4.879906
55.785 4.651621
55.790 5.101504
55.795 5.168964
55.800 4.819066
55.805 4.896294
55.810 5.111782
55.815 5.561857
55.820 5.825073
55.825 5.122779
55.830 4.830439
55.835 4.98252
55.840 5.170691
55.845 5.224227
55.850 4.814455
55.855 4.85183
55.860 5.077785
55.865 5.24813
55.870 5.271636
55.875 4.96935
55.880 4.9057
55.885 4.829995
55.890 4.764603
55.895 4.923327
55.900 4.54523
55.905 4.4112
55.910 4.307554
55.915 4.340921
55.920 4.319511
55.925 4.128398
55.930 4.058053
55.935 4.248882
55.940 4.269481
55.945 4.261851
55.950 4.37085
55.955 4.634591
55.960 5.167401
55.965 5.181304
55.970 5.044633
55.975 4.914395
55.980 4.928249
55.985 4.859574
55.990 4.567694
55.995 4.433886
56.000 4.409501
56.005 4.535593
56.010 4.409681
56.015 4.285983
56.020 4.274143
56.025 4.118281
56.030 3.990931
56.035 4.029566
56.040 3.843397
56.045 3.837838
56.050 4.001663
56.055 4.285917
56.060 4.51477
56.065 4.70146
56.070 4.809338
56.075 5.056479
56.080 5.338917
56.085 5.276423
56.090 5.054211
56.095 5.035173
56.100 5.237141
56.105 5.33889
56.110 5.613148
56.115 5.466393
56.120 5.391519
56.125 5.243714
56.130 5.029451
56.135 4.769111
56.140 4.687835
56.145 4.38335
56.150 4.413577
56.155 4.529911
56.160 4.731565
56.165 4.797777
56.170 4.780144
56.175 4.698102
56.180 4.891494
56.185 5.042238
56.190 5.022539
56.195 5.021706
56.200 5.132588
56.205 5.0601
56.210 5.017717
56.215 4.698043
56.220 4.457314
56.225 4.595585
56.230 4.45411
56.235 4.237761
56.240 4.158761
56.245 4.049422
56.250 4.055331
56.255 3.984169
56.260 3.654045
56.265 3.580123
56.270 3.805955
56.275 3.917393
56.280 4.248489
56.285 4.398287
56.290 4.566767
56.295 4.648866
56.300 4.733737
56.305 4.760548
56.310 4.873418
56.315 4.694663
56.320 4.61895
56.325 4.961839
56.330 5.228891
56.335 5.451271
56.340 5.523573
56.345 5.48755
56.350 5.633665
56.355 5.837854
56.360 5.699841
56.365 5.986513
56.370 5.748631
56.375 5.90926
56.380 5.821639
56.385 5.862426
56.390 5.483457
56.395 5.134196
56.400 4.552387
56.405 4.121253
56.410 3.992018
56.415 3.867389
56.420 3.609954
56.425 3.659568
56.430 3.798864
56.435 4.216841
56.440 4.427763
56.445 4.283358
56.450 4.32417
56.455 4.412867
56.460 4.46245
56.465 4.45233
56.470 4.516007
56.475 4.406726
56.480 4.716739
56.485 5.126069
56.490 5.22253
56.495 5.125969
56.500 5.103023
56.505 4.905506
56.510 4.996457
56.515 5.046704
56.520 4.721584
56.525 4.713523
56.530 4.850879
56.535 4.792174
56.540 4.94985
56.545 4.84879
56.550 4.670433
56.555 4.66503
56.560 4.905166
56.565 5.007156
56.570 4.979233
56.575 4.980206
56.580 5.264614
56.585 5.306904
56.590 5.376729
56.595 5.191292
56.600 5.498711
56.605 5.617083
56.610 5.364336
56.615 5.09567
56.620 4.918941
56.625 4.660738
56.630 4.356424
56.635 4.072997
56.640 3.867326
56.645 3.978679
56.650 4.449116
56.655 4.837012
56.660 4.925836
56.665 4.8385
56.670 4.981388
56.675 4.901648
56.680 4.793356
56.685 4.595525
56.690 4.362191
56.695 4.661051
56.700 4.886044
56.705 4.829329
56.710 4.722809
56.715 4.416001
56.720 4.002943
56.725 3.928112
56.730 3.787051
56.735 3.94645
56.740 4.156528
56.745 4.363073
56.750 4.521515
56.755 4.836864
56.760 5.369234
56.765 5.552595
56.770 5.459466
56.775 5.623708
56.780 5.468627
56.785 5.519459
56.790 5.557243
56.795 5.261981
56.800 4.969554
56.805 4.78984
56.810 4.710903
56.815 5.012269
56.820 4.788897
56.825 4.75818
56.830 4.832637
56.835 5.057648
56.840 4.983607
56.845 4.715804
56.850 4.810618
56.855 4.637662
56.860 4.514037
56.865 4.499206
56.870 4.419216
56.875 4.579034
56.880 5.003532
56.885 4.779055
56.890 4.830328
56.895 4.632877
56.900 4.599876
56.905 4.477952
56.910 4.491601
56.915 4.446257
56.920 4.674633
56.925 4.981065
56.930 5.040035
56.935 4.874717
56.940 4.930627
56.945 4.750044
56.950 4.856401
56.955 4.614222
56.960 4.366812
56.965 4.24456
56.970 4.504093
56.975 4.499675
56.980 4.355747
56.985 4.094031
56.990 4.326334
56.995 4.729774
57.000 4.975781
57.005 4.841628
57.010 4.971225
57.015 5.086511
57.020 5.105289
57.025 4.889236
57.030 4.547385
57.035 4.415335
57.040 4.602331
57.045 4.590209
57.050 4.635226
57.055 4.67428
57.060 4.856972
57.065 5.311183
57.070 5.258422
57.075 4.999814
57.080 4.711734
57.085 4.325958
57.090 4.468831
57.095 4.687046
57.100 4.671568
57.105 4.668705
57.110 4.872999
57.115 5.168753
57.120 5.65257
57.125 5.806001
57.130 5.653392
57.135 5.498162
57.140 5.486459
57.145 5.404514
57.150 5.502657
57.155 5.369954
57.160 4.909396
57.165 4.898777
57.170 4.804258
57.175 4.779378
57.180 4.932256
57.185 4.778484
57.190 4.778366
57.195 4.701064
57.200 4.523875
57.205 4.622306
57.210 4.437683
57.215 4.296298
57.220 4.525614
57.225 4.688468
57.230 5.053245
57.235 5.438294
57.240 5.720782
57.245 5.548677
57.250 5.403306
57.255 4.934084
57.260 4.713427
57.265 4.393447
57.270 4.311782
57.275 4.647304
57.280 4.686212
57.285 4.831439
57.290 5.041853
57.295 5.21318
57.300 5.233741
57.305 4.943278
57.310 4.735926
57.315 4.691249
57.320 4.742817
57.325 5.153838
57.330 5.004524
57.335 4.803774
57.340 4.626673
57.345 4.868318
57.350 5.286889
57.355 4.915238
57.360 4.388759
57.365 4.181006
57.370 4.334034
57.375 4.188314
57.380 4.017683
57.385 3.989035
57.390 4.483494
57.395 4.889828
57.400 5.327814
57.405 5.880811
57.410 6.099266
57.415 6.207752
57.420 6.164515
57.425 5.739215
57.430 5.428386
57.435 5.065671
57.440 4.826363
57.445 4.748286
57.450 4.562297
57.455 4.837606
57.460 4.94054
57.465 5.295753
57.470 5.377495
57.475 5.423767
57.480 5.399531
57.485 5.153183
57.490 4.706157
57.495 4.546921
57.500 4.780699
57.505 4.895116
57.510 4.909795
57.515 5.13219
57.520 5.2844
57.525 5.337816
57.530 5.31024
57.535 4.926661
57.540 5.039701
57.545 5.091741
57.550 5.091591
57.555 5.379769
57.560 5.474658
57.565 5.68281
57.570 5.885626
57.575 5.509605
57.580 5.36834
57.585 5.381186
57.590 5.422974
57.595 5.625446
57.600 5.498301
57.605 5.156757
57.610 5.081831
57.615 5.056429
57.620 4.84868
57.625 4.82412
57.630 4.706266
57.635 4.692595
57.640 4.988281
57.645 4.930039
57.650 4.815634
57.655 4.419962
57.660 4.12337
57.665 4.161913
57.670 4.108991
57.675 4.404011
57.680 4.646142
57.685 4.796551
57.690 5.109725
57.695 5.167734
57.700 5.256516
57.705 5.092164
57.710 4.939386
57.715 5.077333
57.720 5.099597
57.725 5.096252
57.730 4.99105
57.735 5.288197
57.740 5.626216
57.745 5.651138
57.750 5.629067
57.755 5.786499
57.760 6.172532
57.765 6.170625
57.770 6.028796
57.775 5.883322
57.780 5.651162
57.785 5.831595
57.790 5.776655
57.795 5.802773
57.800 5.682809
57.805 5.460061
57.810 5.760077
57.815 5.743205
57.820 5.918596
57.825 5.925475
57.830 6.183255
57.835 6.464512
57.840 6.587093
57.845 6.577626
57.850 6.401387
57.855 6.221701
57.860 6.314328
57.865 6.337479
57.870 6.584765
57.875 6.629116
57.880 6.907382
57.885 7.392389
57.890 7.557255
57.895 7.983299
57.900 7.842034
57.905 7.493301
57.910 7.526412
57.915 7.384857
57.920 7.64678
57.925 7.686859
57.930 7.176457
57.935 7.590025
57.940 8.433476
57.945 8.934135
57.950 9.191923
57.955 9.103962
57.960 9.030795
57.965 9.051349
57.970 8.831012
57.975 8.961179
57.980 8.773766
57.985 8.505478
57.990 8.811277
57.995 9.365464
58.000 9.885966
58.005 10.484297
58.010 11.143737
58.015 11.756209
58.020 12.246025
58.025 11.99142
58.030 12.127447
58.035 12.034799
58.040 12.197948
58.045 11.988749
58.050 12.379052
58.055 12.607956
58.060 12.618976
58.065 12.611187
58.070 12.668303
58.075 12.758919
58.080 12.721066
58.085 13.348591
58.090 13.912148
58.095 14.130965
58.100 14.564192
58.105 15.055217
58.110 15.420967
58.115 15.480629
58.120 14.628544
58.125 13.90035
58.130 14.054599
58.135 14.051222
58.140 13.793331
58.145 13.597835
58.150 13.231968
58.155 13.629121
58.160 14.190483
58.165 14.702744
58.170 14.394822
58.175 14.219738
58.180 14.12195
58.185 13.798874
58.190 13.657525
58.195 13.392438
58.200 12.756316
58.205 12.467204
58.210 12.294185
58.215 12.619411
58.220 12.494786
58.225 12.064723
58.230 12.962579
58.235 13.144277
58.240 13.14994
58.245 12.893124
58.250 12.223536
58.255 12.293558
58.260 12.013985
58.265 10.887932
58.270 10.705742
58.275 10.796827
58.280 10.846752
58.285 11.06128
58.290 11.745922
58.295 12.273917
58.300 12.379064
58.305 12.654584
58.310 12.440307
58.315 12.165085
58.320 12.099871
58.325 11.531236
58.330 10.574738
58.335 9.838211
58.340 8.889889
58.345 8.520012
58.350 8.286472
58.355 7.881852
58.360 7.402972
58.365 7.70198
58.370 8.10328
58.375 8.68789
58.380 8.89327
58.385 9.089818
58.390 9.02704
58.395 8.980534
58.400 8.684687
58.405 8.338395
58.410 8.028475
58.415 7.812961
58.420 7.203452
58.425 7.067134
58.430 7.255027
58.435 7.538255
58.440 7.356104
58.445 7.137484
58.450 7.105615
58.455 7.323336
58.460 7.074963
58.465 6.653178
58.470 6.502546
58.475 6.498766
58.480 6.348828
58.485 6.355915
58.490 6.436573
58.495 6.811211
58.500 6.74953
58.505 6.377781
58.510 6.40284
58.515 6.331966
58.520 6.160908
58.525 5.825963
58.530 5.331402
58.535 5.329558
58.540 5.586397
58.545 5.820018
58.550 5.998423
58.555 6.066471
58.560 6.176997
58.565 6.287126
58.570 6.52211
58.575 6.680122
58.580 6.808858
58.585 6.797569
58.590 6.644993
58.595 6.548912
58.600 6.241528
58.605 5.824625
58.610 5.624789
58.615 5.690203
58.620 5.828595
58.625 5.870463
58.630 6.229642
58.635 6.30821
58.640 6.293387
58.645 6.188141
58.650 5.904286
58.655 5.819638
58.660 5.62515
58.665 5.336893
58.670 5.536579
58.675 5.829747
58.680 5.791816
58.685 5.812844
58.690 5.909136
58.695 5.722583
58.700 5.583583
58.705 5.286538
58.710 4.99426
58.715 4.956458
58.720 4.624859
58.725 4.439474
58.730 4.505045
58.735 5.095478
58.740 5.426181
58.745 5.632274
58.750 5.582368
58.755 5.591786
58.760 5.586715
58.765 5.709996
58.770 5.457942
58.775 5.559823
58.780 5.335279
58.785 5.313247
58.790 5.392435
58.795 5.541529
58.800 5.761237
58.805 5.743638
58.810 5.636847
58.815 5.649425
58.820 5.79494
58.825 5.898917
58.830 6.135674
58.835 5.728569
58.840 5.337532
58.845 5.299248
58.850 5.169513
58.855 4.750318
58.860 4.42958
58.865 4.539135
58.870 4.747647
58.875 4.904674
58.880 4.776392
58.885 5.032286
58.890 5.491858
58.895 5.383564
58.900 5.067466
58.905 5.208443
58.910 5.092822
58.915 5.040735
58.920 4.792005
58.925 4.701804
58.930 5.14649
58.935 5.034058
58.940 4.945665
58.945 4.897888
58.950 5.194603
58.955 5.512801
58.960 5.394765
58.965 5.134065
58.970 5.043205
58.975 5.308632
58.980 5.246352
58.985 5.0779
58.990 5.058212
58.995 5.215221
59.000 5.15721
59.005 5.274414
59.010 5.472316
59.015 5.749
59.020 5.897316
59.025 5.977538
59.030 5.688138
59.035 5.737724
59.040 5.685675
59.045 5.166259
59.050 5.016044
59.055 4.663963
59.060 4.508218
59.065 4.885967
59.070 4.92968
59.075 4.825239
59.080 4.781134
59.085 4.731274
59.090 4.840568
59.095 4.781429
59.100 4.496674
59.105 4.349235
59.110 4.561543
59.115 4.918937
59.120 4.793619
59.125 4.918025
59.130 5.080636
59.135 5.330714
59.140 5.453737
59.145 5.18678
59.150 5.182938
59.155 5.705264
59.160 5.671951
59.165 5.581573
59.170 5.034275
59.175 4.921366
59.180 4.729427
59.185 4.568743
59.190 4.303938
59.195 4.266215
59.200 4.061478
59.205 4.171635
59.210 4.014529
59.215 4.248532
59.220 4.203946
59.225 4.043783
59.230 4.281705
59.235 4.779143
59.240 4.962171
59.245 5.221361
59.250 5.135905
59.255 4.937129
59.260 5.027698
59.265 5.007823
59.270 4.931769
59.275 4.926657
59.280 4.870049
59.285 4.866027
59.290 5.007825
59.295 4.825581
59.300 4.7738
59.305 4.757965
59.310 4.876532
59.315 4.97826
59.320 5.022289
59.325 5.37727
59.330 5.360957
59.335 5.307906
59.340 5.383979
59.345 5.508935
59.350 5.297473
59.355 5.066049
59.360 4.813076
59.365 4.873259
59.370 5.094109
59.375 5.192655
59.380 5.297182
59.385 5.506996
59.390 5.744526
59.395 5.758496
59.400 5.840438
59.405 5.949339
59.410 5.590469
59.415 5.55579
59.420 5.994319
59.425 5.882987
59.430 5.884522
59.435 5.797655
59.440 5.589599
59.445 5.960289
59.450 5.902636
59.455 5.735273
59.460 5.91106
59.465 5.950271
59.470 5.748108
59.475 5.532282
59.480 5.445358
59.485 5.284237
59.490 5.405746
59.495 5.370678
59.500 5.198752
59.505 5.012801
59.510 4.931707
59.515 4.700414
59.520 4.480466
59.525 4.07748
59.530 3.774089
59.535 4.10174
59.540 4.283246
59.545 4.134258
59.550 4.30617
59.555 4.401138
59.560 4.582022
59.565 4.863562
59.570 4.899404
59.575 5.097756
59.580 5.377037
59.585 5.356988
59.590 5.256541
59.595 5.120868
59.600 4.884044
59.605 4.905183
59.610 5.05145
59.615 5.046332
59.620 5.341955
59.625 5.382045
59.630 5.941819
59.635 6.029376
59.640 6.175166
59.645 6.133391
59.650 6.037961
59.655 5.887635
59.660 6.127959
59.665 5.944164
59.670 5.795048
59.675 5.62795
59.680 5.705851
59.685 5.782947
59.690 5.801239
59.695 5.754999
59.700 5.819334
59.705 5.865188
59.710 5.841544
59.715 6.012951
59.720 6.079202
59.725 6.040283
59.730 5.584628
59.735 5.549761
59.740 5.591259
59.745 5.474315
59.750 5.113307
59.755 5.152135
59.760 5.079995
59.765 5.082582
59.770 4.951993
59.775 5.294928
59.780 5.297919
59.785 5.375468
59.790 5.137295
59.795 5.346465
59.800 5.324203
59.805 5.086922
59.810 4.897079
59.815 4.77367
59.820 4.494695
59.825 4.65884
59.830 4.23329
59.835 4.00378
59.840 4.273064
59.845 4.149713
59.850 4.091028
59.855 4.578472
59.860 4.957465
59.865 5.499016
59.870 6.003824
59.875 5.760056
59.880 5.673543
59.885 5.805335
59.890 5.480939
59.895 5.079569
59.900 4.968597
59.905 4.983096
59.910 5.14011
59.915 5.240968
59.920 5.284128
59.925 5.170812
59.930 5.062447
59.935 4.929319
59.940 4.535225
59.945 4.263449
59.950 4.25214
59.955 4.33559
59.960 4.652606
59.965 4.686952
59.970 4.774693
59.975 5.154317
59.980 5.602247
59.985 5.706399
59.990 5.603198
59.995 5.301632
60.000 5.282931
60.005 5.184156
60.010 4.925552
60.015 4.556094
60.020 4.853825
60.025 5.034088
60.030 5.132622
60.035 5.348777
60.040 5.644592
60.045 6.342134
60.050 6.846271
60.055 6.296226
60.060 6.111072
60.065 6.310704
60.070 6.205814
60.075 5.781424
60.080 5.382281
60.085 5.076576
60.090 5.347513
60.095 5.461715
60.100 5.380855
60.105 5.505732
60.110 5.790683
60.115 5.937531
60.120 5.768596
60.125 5.343681
60.130 5.21657
60.135 5.197789
60.140 5.218742
60.145 5.033987
60.150 4.554953
60.155 4.565395
60.160 4.814902
60.165 4.750811
60.170 4.365761
60.175 4.243323
60.180 4.339748
60.185 4.585836
60.190 4.832756
60.195 4.858755
60.200 5.201358
60.205 5.697069
60.210 6.080831
60.215 6.142586
60.220 6.038026
60.225 6.236517
60.230 5.974543
60.235 5.926643
60.240 5.405947
60.245 5.098632
60.250 5.084689
60.255 5.034411
60.260 4.851624
60.265 4.840487
60.270 4.520489
60.275 4.926576
60.280 5.21815
60.285 5.210626
60.290 5.498456
60.295 5.565001
60.300 5.851122
60.305 6.240631
60.310 5.816332
60.315 5.561499
60.320 5.558107
60.325 5.530741
60.330 5.435103
60.335 5.571959
60.340 5.628113
60.345 5.843628
60.350 5.92003
60.355 5.92094
60.360 5.859264
60.365 5.942374
60.370 5.821495
60.375 5.672466
60.380 5.318347
60.385 5.012482
60.390 4.806489
60.395 4.637965
60.400 4.35059
60.405 3.957655
60.410 3.864358
60.415 4.270823
60.420 4.575932
60.425 4.788451
60.430 4.741622
60.435 4.622383
60.440 4.682516
60.445 4.853273
60.450 4.650862
60.455 4.509844
60.460 4.190629
60.465 4.168091
60.470 4.163845
60.475 4.408525
60.480 4.392344
60.485 4.659446
60.490 4.823589
60.495 5.372564
60.500 5.842606
60.505 6.272889
60.510 6.253838
60.515 6.337689
60.520 6.423095
60.525 6.380692
60.530 6.014459
60.535 5.578455
60.540 5.272771
60.545 5.177052
60.550 4.892655
60.555 4.887568
60.560 5.089339
60.565 5.031924
60.570 5.344421
60.575 5.447113
60.580 5.625262
60.585 5.517879
60.590 5.163005
60.595 5.221766
60.600 5.481974
60.605 5.472252
60.610 5.574852
60.615 5.192521
60.620 5.23373
60.625 5.455914
60.630 5.291077
60.635 5.310097
60.640 5.27486
60.645 5.15708
60.650 5.226791
60.655 5.267612
60.660 5.20908
60.665 5.081599
60.670 4.89648
60.675 4.795651
60.680 4.718853
60.685 5.003044
60.690 4.937227
60.695 4.964623
60.700 4.840996
60.705 4.955011
60.710 5.007073
60.715 5.428613
60.720 5.173424
60.725 5.057565
60.730 5.130346
60.735 4.989217
60.740 4.916201
