!@!!GADDS PLOTSO FILE: Chi integration type
!@!!Title/SampleName: map-102
!@!!Comment: ?
!@!!User: Bruker Instrument Administrator
!@!!Site: University of Illinois Chicago
!@!!Frame: map-102_01_000.gfrm
!@!!Wavelengths    1.54184   1.54056   1.54439
!@!!Frame angles: 2Theta: 65.000 Omega: 50.000 Phi: 0.000 Chi: 90.000
!@!!Integration range: 2Theta: 55.000 to 75.000  Gamma: -105.000 to -75.000
!@!!Integration method: bin normalized
!@!N
!@!SS
!@!M
!@!L 0.0 0.0 0.0 0.0
!@!XDegrees
!@!YCounts
55.000 5.061404
55.005 5.16533
55.010 5.297145
55.015 5.348761
55.020 5.537573
55.025 5.633325
55.030 5.74073
55.035 5.577873
55.040 5.288459
55.045 5.058221
55.050 5.104148
55.055 5.035631
55.060 5.245194
55.065 4.940751
55.070 4.920067
55.075 5.049178
55.080 5.052033
55.085 5.017314
55.090 4.795541
55.095 4.660576
55.100 5.252146
55.105 5.381548
55.110 5.463514
55.115 5.709748
55.120 5.807893
55.125 5.60413
55.130 5.273564
55.135 5.138787
55.140 5.092659
55.145 4.971628
55.150 4.805238
55.155 4.87518
55.160 5.39446
55.165 5.624685
55.170 5.247376
55.175 5.290655
55.180 5.034102
55.185 4.649855
55.190 4.325939
55.195 4.057974
55.200 4.203765
55.205 4.180207
55.210 3.929277
55.215 4.047188
55.220 4.35086
55.225 4.538468
55.230 4.125407
55.235 4.009374
55.240 4.286172
55.245 4.190197
55.250 4.493337
55.255 4.599396
55.260 4.525905
55.265 4.79362
55.270 4.806816
55.275 4.795905
55.280 4.732306
55.285 4.382168
55.290 4.291799
55.295 4.373777
55.300 4.290905
55.305 4.217891
55.310 4.104409
55.315 4.131714
55.320 4.16333
55.325 4.223469
55.330 4.379226
55.335 4.377517
55.340 4.418205
55.345 4.423489
55.350 4.362549
55.355 4.34511
55.360 4.065337
55.365 4.279042
55.370 4.545437
55.375 4.474051
55.380 4.459976
55.385 4.499703
55.390 4.627664
55.395 4.800311
55.400 4.417886
55.405 4.384524
55.410 4.965365
55.415 5.292759
55.420 5.04591
55.425 4.721669
55.430 4.590009
55.435 4.496989
55.440 4.274167
55.445 3.601604
55.450 3.549801
55.455 3.883626
55.460 4.135468
55.465 4.390324
55.470 4.888104
55.475 5.16646
55.480 5.418428
55.485 5.529083
55.490 5.558148
55.495 5.533972
55.500 5.332842
55.505 5.236209
55.510 5.033001
55.515 4.841001
55.520 4.799069
55.525 4.71836
55.530 4.415702
55.535 4.283982
55.540 4.080908
55.545 4.406655
55.550 4.497815
55.555 4.675479
55.560 4.995987
55.565 5.223286
55.570 5.143969
55.575 5.220788
55.580 4.909449
55.585 4.629929
55.590 4.340527
55.595 4.215042
55.600 4.325734
55.605 4.407608
55.610 4.508281
55.615 4.661172
55.620 4.867795
55.625 4.810844
55.630 4.681363
55.635 4.480509
55.640 4.594376
55.645 4.693178
55.650 4.902906
55.655 5.150196
55.660 5.347427
55.665 5.235713
55.670 5.645904
55.675 5.45135
55.680 5.188394
55.685 5.24295
55.690 4.833154
55.695 4.909526
55.700 5.318654
55.705 5.177837
55.710 5.610369
55.715 5.661626
55.720 5.679561
55.725 5.952866
55.730 5.609136
55.735 5.43882
55.740 5.118741
55.745 5.110464
55.750 5.277114
55.755 5.193707
55.760 5.555203
55.765 6.164958
55.770 6.331959
55.775 6.638029
55.780 6.532599
55.785 6.549997
55.790 6.433188
55.795 5.818879
55.800 5.353425
55.805 5.056121
55.810 4.575867
55.815 4.119073
55.820 3.971335
55.825 4.062276
55.830 4.308319
55.835 4.235548
55.840 4.312581
55.845 4.739598
55.850 4.798914
55.855 4.802038
55.860 4.87253
55.865 4.731758
55.870 4.575708
55.875 4.251394
55.880 3.833807
55.885 4.06433
55.890 4.215854
55.895 4.261438
55.900 4.568833
55.905 4.754143
55.910 4.924453
55.915 4.968583
55.920 5.081416
55.925 4.949501
55.930 4.731603
55.935 4.535753
55.940 4.317647
55.945 4.442953
55.950 4.202836
55.955 3.966455
55.960 4.260407
55.965 4.220847
55.970 4.236357
55.975 4.665332
55.980 4.903924
55.985 5.228463
55.990 5.29495
55.995 4.922224
56.000 5.136361
56.005 5.53779
56.010 5.655114
56.015 5.489839
56.020 5.507073
56.025 5.578483
56.030 5.798928
56.035 5.4711
56.040 5.168083
56.045 4.877741
56.050 5.044818
56.055 4.793625
56.060 4.747607
56.065 4.683332
56.070 4.897593
56.075 5.14603
56.080 5.218514
56.085 5.010281
56.090 4.943505
56.095 5.00728
56.100 5.035534
56.105 4.832932
56.110 4.566488
56.115 4.561388
56.120 4.844498
56.125 5.314507
56.130 5.291327
56.135 5.24502
56.140 4.94359
56.145 4.883742
56.150 5.328679
56.155 5.280612
56.160 5.412139
56.165 5.452607
56.170 5.643299
56.175 5.591937
56.180 5.388173
56.185 5.057228
56.190 5.074439
56.195 4.608903
56.200 4.579278
56.205 4.501074
56.210 4.594617
56.215 4.850493
56.220 4.654609
56.225 4.64327
56.230 4.987868
56.235 5.157927
56.240 5.21082
56.245 5.086688
56.250 5.172896
56.255 5.666996
56.260 5.305525
56.265 5.189355
56.270 5.319989
56.275 5.390011
56.280 5.542268
56.285 5.127969
56.290 5.026121
56.295 5.278568
56.300 5.114808
56.305 5.138152
56.310 5.080637
56.315 4.936608
56.320 4.945684
56.325 4.742124
56.330 4.674855
56.335 4.709489
56.340 4.774585
56.345 4.876253
56.350 5.30784
56.355 5.336936
56.360 5.316103
56.365 5.245629
56.370 5.020811
56.375 4.943586
56.380 5.211339
56.385 4.926859
56.390 5.161087
56.395 5.536366
56.400 5.594206
56.405 5.524467
56.410 5.196292
56.415 4.87754
56.420 4.71169
56.425 4.522783
56.430 4.215062
56.435 4.408724
56.440 4.55747
56.445 4.531124
56.450 4.51205
56.455 4.426527
56.460 4.540358
56.465 4.606458
56.470 4.706019
56.475 5.154737
56.480 5.340801
56.485 5.593245
56.490 5.546896
56.495 5.662062
56.500 5.43694
56.505 5.142115
56.510 5.326261
56.515 5.473173
56.520 5.722341
56.525 5.63502
56.530 5.88396
56.535 6.14265
56.540 6.019978
56.545 5.582211
56.550 5.363041
56.555 5.467199
56.560 5.307091
56.565 4.896922
56.570 4.824044
56.575 4.893352
56.580 4.893675
56.585 4.906711
56.590 4.612006
56.595 4.838097
56.600 5.08673
56.605 5.043537
56.610 5.222432
56.615 5.409831
56.620 5.300183
56.625 5.897144
56.630 5.871691
56.635 5.921383
56.640 5.691335
56.645 5.572233
56.650 5.439689
56.655 5.402035
56.660 4.927482
56.665 4.992256
56.670 4.868124
56.675 5.157853
56.680 5.111732
56.685 5.149367
56.690 4.94521
56.695 4.834841
56.700 4.766051
56.705 4.876825
56.710 4.737597
56.715 4.408736
56.720 4.470743
56.725 4.963019
56.730 5.027307
56.735 4.979663
56.740 4.704031
56.745 4.932227
56.750 5.164833
56.755 5.078244
56.760 4.783368
56.765 4.885887
56.770 5.222255
56.775 5.333329
56.780 5.256134
56.785 5.116984
56.790 5.316717
56.795 5.323082
56.800 4.958479
56.805 4.812182
56.810 5.023895
56.815 5.099097
56.820 5.049344
56.825 5.222666
56.830 5.519528
56.835 5.672885
56.840 5.829959
56.845 5.324232
56.850 5.440956
56.855 5.223352
56.860 4.964561
56.865 4.869041
56.870 4.835065
56.875 4.622845
56.880 4.717208
56.885 4.600832
56.890 4.633032
56.895 4.435184
56.900 4.299066
56.905 4.156929
56.910 4.309247
56.915 4.304842
56.920 4.460967
56.925 4.880987
56.930 5.149097
56.935 5.349854
56.940 5.629079
56.945 5.597758
56.950 5.599794
56.955 5.42835
56.960 5.112633
56.965 5.399614
56.970 5.253877
56.975 5.241955
56.980 5.558561
56.985 5.491469
56.990 5.901232
56.995 5.897798
57.000 5.446323
57.005 5.399488
57.010 5.301917
57.015 5.02269
57.020 4.937251
57.025 4.51993
57.030 4.250201
57.035 4.66754
57.040 4.887125
57.045 4.924389
57.050 5.261959
57.055 5.603214
57.060 5.873838
57.065 6.372786
57.070 6.272366
57.075 6.224545
57.080 6.047284
57.085 5.784546
57.090 5.570578
57.095 5.4594
57.100 4.856557
57.105 4.609583
57.110 4.648021
57.115 4.558871
57.120 4.605781
57.125 4.379766
57.130 4.355103
57.135 4.429216
57.140 4.666876
57.145 4.553359
57.150 4.866531
57.155 4.807944
57.160 4.608519
57.165 4.743558
57.170 4.717386
57.175 4.760129
57.180 4.554085
57.185 4.347093
57.190 4.690378
57.195 5.012827
57.200 5.023998
57.205 5.181003
57.210 5.164848
57.215 5.406046
57.220 5.199541
57.225 4.753379
57.230 4.952594
57.235 5.374505
57.240 5.639892
57.245 5.619352
57.250 5.433813
57.255 5.76566
57.260 5.959475
57.265 5.820584
57.270 5.37157
57.275 5.201412
57.280 5.363984
57.285 5.461858
57.290 5.484065
57.295 5.284061
57.300 5.289744
57.305 5.278183
57.310 5.385357
57.315 5.267592
57.320 5.302925
57.325 5.456134
57.330 5.354854
57.335 5.218617
57.340 5.365636
57.345 5.274472
57.350 5.237079
57.355 5.194369
57.360 4.949243
57.365 5.113072
57.370 5.021807
57.375 4.578728
57.380 4.570708
57.385 4.625567
57.390 4.625875
57.395 4.821495
57.400 4.893552
57.405 5.163133
57.410 5.516309
57.415 5.36256
57.420 5.328981
57.425 5.338329
57.430 5.443223
57.435 5.278134
57.440 5.134404
57.445 4.904764
57.450 4.878078
57.455 4.737834
57.460 4.388192
57.465 4.472016
57.470 4.383694
57.475 4.443911
57.480 4.699195
57.485 4.944319
57.490 5.207913
57.495 5.249875
57.500 5.10169
57.505 5.155241
57.510 5.053376
57.515 4.837939
57.520 5.064859
57.525 5.216806
57.530 5.416859
57.535 5.857203
57.540 5.883558
57.545 5.752535
57.550 5.585917
57.555 5.531946
57.560 5.409596
57.565 5.068724
57.570 4.730237
57.575 4.965615
57.580 5.162109
57.585 5.361458
57.590 5.157072
57.595 5.315354
57.600 5.655948
57.605 5.615481
57.610 5.668601
57.615 5.839557
57.620 5.861004
57.625 5.817133
57.630 5.917672
57.635 5.891142
57.640 5.853953
57.645 5.755115
57.650 5.667989
57.655 5.498426
57.660 5.738674
57.665 5.581744
57.670 5.552595
57.675 5.831223
57.680 5.727275
57.685 5.889021
57.690 5.929942
57.695 5.532403
57.700 5.4403
57.705 5.177055
57.710 4.982164
57.715 5.309155
57.720 5.395893
57.725 5.606985
57.730 5.763309
57.735 6.382045
57.740 6.819131
57.745 6.677629
57.750 6.142711
57.755 5.884842
57.760 5.670569
57.765 5.570738
57.770 5.372234
57.775 5.082901
57.780 5.564945
57.785 6.198632
57.790 6.337618
57.795 6.429729
57.800 6.5375
57.805 6.601263
57.810 7.010265
57.815 7.019233
57.820 6.721106
57.825 6.877435
57.830 6.89706
57.835 7.084893
57.840 7.067896
57.845 6.733157
57.850 6.705752
57.855 6.929989
57.860 7.274868
57.865 7.127556
57.870 7.662826
57.875 7.879633
57.880 7.653553
57.885 7.878806
57.890 7.84256
57.895 7.836005
57.900 8.467006
57.905 8.315793
57.910 8.472648
57.915 8.583332
57.920 8.50231
57.925 8.501424
57.930 8.280226
57.935 8.050852
57.940 8.365298
57.945 9.199046
57.950 9.78662
57.955 9.846263
57.960 10.334586
57.965 10.644004
57.970 11.012104
57.975 11.054683
57.980 10.930996
57.985 11.342919
57.990 11.613732
57.995 11.719411
58.000 11.944864
58.005 12.348753
58.010 13.084463
58.015 13.113506
58.020 13.170927
58.025 13.403959
58.030 13.726819
58.035 13.900945
58.040 13.973086
58.045 13.839825
58.050 14.275759
58.055 14.582566
58.060 14.946968
58.065 14.972739
58.070 15.144031
58.075 15.318327
58.080 15.553511
58.085 15.66815
58.090 15.725557
58.095 15.326346
58.100 15.21285
58.105 15.067453
58.110 14.448553
58.115 14.501155
58.120 14.47472
58.125 15.189087
58.130 15.58442
58.135 15.975984
58.140 16.166397
58.145 16.704845
58.150 16.562441
58.155 16.485256
58.160 15.956298
58.165 16.762934
58.170 16.884634
58.175 16.720247
58.180 16.775826
58.185 16.814285
58.190 16.371328
58.195 16.285238
58.200 15.176312
58.205 14.867496
58.210 14.829775
58.215 14.319279
58.220 14.545763
58.225 14.667383
58.230 14.284746
58.235 14.406301
58.240 13.913
58.245 13.387028
58.250 13.387063
58.255 13.001809
58.260 12.74824
58.265 12.702711
58.270 12.52143
58.275 13.078443
58.280 12.928191
58.285 12.276357
58.290 11.861373
58.295 11.625816
58.300 11.210046
58.305 10.564909
58.310 10.249827
58.315 10.296381
58.320 10.425523
58.325 10.488058
58.330 10.364472
58.335 10.5468
58.340 10.547094
58.345 10.34477
58.350 10.79229
58.355 10.472
58.360 9.852289
58.365 9.796286
58.370 9.647484
58.375 9.489902
58.380 9.262983
58.385 8.602534
58.390 8.889554
58.395 8.948749
58.400 8.607618
58.405 8.351399
58.410 7.791424
58.415 7.328079
58.420 7.136857
58.425 6.749082
58.430 6.868869
58.435 6.804854
58.440 7.140826
58.445 7.587317
58.450 7.861364
58.455 7.782692
58.460 7.846303
58.465 7.715622
58.470 7.649259
58.475 7.503278
58.480 7.427027
58.485 7.025811
58.490 6.691387
58.495 6.528738
58.500 6.380913
58.505 6.347221
58.510 6.329493
58.515 6.109698
58.520 6.192451
58.525 6.120924
58.530 6.343143
58.535 6.352537
58.540 6.3049
58.545 6.244803
58.550 6.270912
58.555 6.290601
58.560 5.898016
58.565 5.297297
58.570 5.088979
58.575 4.85349
58.580 4.743279
58.585 4.784141
58.590 4.874612
58.595 5.136275
58.600 5.300374
58.605 5.595222
58.610 5.730675
58.615 5.815249
58.620 5.578838
58.625 5.467394
58.630 5.255678
58.635 5.513864
58.640 5.735566
58.645 5.55862
58.650 5.499839
58.655 5.829773
58.660 6.13693
58.665 6.477467
58.670 6.076607
58.675 5.768057
58.680 6.081442
58.685 6.12271
58.690 6.506919
58.695 6.63858
58.700 6.685982
58.705 6.61521
58.710 6.515186
58.715 6.492006
58.720 6.251848
58.725 5.918196
58.730 5.685893
58.735 5.509726
58.740 5.61661
58.745 5.650328
58.750 6.057389
58.755 6.275244
58.760 6.048192
58.765 5.992731
58.770 5.939162
58.775 6.2425
58.780 6.191347
58.785 5.86837
58.790 5.75736
58.795 6.008941
58.800 6.071419
58.805 6.050996
58.810 5.58362
58.815 5.318841
58.820 5.35732
58.825 5.197962
58.830 5.020324
58.835 5.013504
58.840 4.880835
58.845 4.957307
58.850 5.191684
58.855 5.140332
58.860 5.152919
58.865 5.145197
58.870 5.241616
58.875 5.540944
58.880 5.885427
58.885 5.508014
58.890 5.34407
58.895 5.276989
58.900 5.438474
58.905 5.737336
58.910 5.703886
58.915 5.590104
58.920 5.663238
58.925 5.847109
58.930 5.825593
58.935 5.174856
58.940 4.760965
58.945 4.929145
58.950 4.925422
58.955 5.13496
58.960 5.182069
58.965 5.205838
58.970 5.645536
58.975 5.653888
58.980 5.818129
58.985 5.753599
58.990 5.580591
58.995 5.661518
59.000 5.693779
59.005 5.494957
59.010 5.226229
59.015 4.904695
59.020 4.929678
59.025 4.928645
59.030 4.560642
59.035 4.381117
59.040 4.741951
59.045 4.948426
59.050 5.189403
59.055 5.199117
59.060 5.100986
59.065 5.471503
59.070 5.686918
59.075 5.590714
59.080 5.650839
59.085 5.519094
59.090 5.443262
59.095 5.804526
59.100 5.593615
59.105 5.587976
59.110 5.651856
59.115 5.637757
59.120 5.74357
59.125 5.918495
59.130 5.76386
59.135 5.71549
59.140 5.212193
59.145 5.2521
59.150 4.97476
59.155 5.116087
59.160 5.025333
59.165 4.878528
59.170 5.141033
59.175 5.223456
59.180 4.902472
59.185 4.818473
59.190 4.519513
59.195 4.461615
59.200 4.87743
59.205 4.903657
59.210 4.968742
59.215 4.969838
59.220 4.828461
59.225 5.139575
59.230 5.367617
59.235 5.143232
59.240 4.862148
59.245 4.681674
59.250 4.594231
59.255 4.43715
59.260 4.322229
59.265 4.23205
59.270 4.161117
59.275 4.238795
59.280 4.477742
59.285 4.939307
59.290 5.174814
59.295 4.894289
59.300 4.956682
59.305 5.104723
59.310 5.131283
59.315 5.486052
59.320 5.319531
59.325 5.500094
59.330 5.813888
59.335 5.663934
59.340 5.451792
59.345 5.374248
59.350 5.019985
59.355 5.230132
59.360 5.195433
59.365 4.960472
59.370 5.26059
59.375 5.416383
59.380 5.753771
59.385 5.836564
59.390 5.597414
59.395 5.28186
59.400 5.219377
59.405 5.053543
59.410 4.821939
59.415 4.581076
59.420 4.648466
59.425 4.672173
59.430 4.795954
59.435 4.95053
59.440 4.998833
59.445 5.13945
59.450 5.098995
59.455 5.015824
59.460 5.336365
59.465 5.502063
59.470 5.567679
59.475 5.872931
59.480 5.911333
59.485 5.958654
59.490 5.759739
59.495 5.637063
59.500 5.480601
59.505 5.230865
59.510 4.923081
59.515 4.722822
59.520 4.905947
59.525 5.221708
59.530 5.088656
59.535 4.93399
59.540 4.958896
59.545 4.985147
59.550 4.782536
59.555 4.068834
59.560 3.661833
59.565 3.976908
59.570 4.191475
59.575 4.383432
59.580 4.514681
59.585 4.689556
59.590 5.159104
59.595 5.441184
59.600 5.572053
59.605 5.765938
59.610 5.712824
59.615 5.811404
59.620 5.890338
59.625 6.036924
59.630 5.973471
59.635 6.178602
59.640 5.909695
59.645 6.115513
59.650 6.213106
59.655 6.158847
59.660 6.242473
59.665 5.906472
59.670 5.679556
59.675 5.481284
59.680 5.221466
59.685 5.255514
59.690 5.34209
59.695 5.521624
59.700 5.561527
59.705 5.426335
59.710 5.580542
59.715 5.555402
59.720 5.240733
59.725 5.235588
59.730 4.982665
59.735 5.231808
59.740 5.472478
59.745 5.291024
59.750 5.496619
59.755 5.776324
59.760 5.916694
59.765 5.874068
59.770 5.554508
59.775 5.279087
59.780 5.657312
59.785 5.560068
59.790 5.518929
59.795 5.684426
59.800 6.258234
59.805 6.325099
59.810 6.445642
59.815 6.101369
59.820 6.278087
59.825 6.338975
59.830 5.928953
59.835 5.446542
59.840 5.303799
59.845 5.423423
59.850 5.630418
59.855 5.464761
59.860 5.695824
59.865 5.684318
59.870 6.005051
59.875 6.094257
59.880 5.999617
59.885 5.892181
59.890 5.754702
59.895 5.426438
59.900 5.460107
59.905 4.969339
59.910 5.021674
59.915 5.171318
59.920 5.16682
59.925 5.224255
59.930 5.437606
59.935 5.507914
59.940 5.866109
59.945 5.754549
59.950 5.507805
59.955 5.473524
59.960 5.481321
59.965 5.161259
59.970 4.897622
59.975 4.594458
59.980 4.454985
59.985 4.538519
59.990 4.742099
59.995 4.639804
60.000 4.884256
60.005 5.26027
60.010 5.441506
60.015 5.526026
60.020 5.502296
60.025 5.345651
60.030 5.259059
60.035 4.968324
60.040 4.999009
60.045 5.026466
60.050 5.295418
60.055 5.33147
60.060 5.221977
60.065 5.48208
60.070 5.886657
60.075 5.789073
60.080 5.946562
60.085 5.993505
60.090 5.900594
60.095 6.183448
60.100 5.982666
60.105 5.793625
60.110 5.799866
60.115 5.691659
60.120 5.133882
60.125 5.146501
60.130 5.108475
60.135 5.256117
60.140 5.430408
60.145 5.644882
60.150 6.072652
60.155 6.592454
60.160 6.432609
60.165 6.356622
60.170 6.187024
60.175 6.108097
60.180 5.648463
60.185 5.328248
60.190 5.244761
60.195 5.152507
60.200 5.123275
60.205 5.134552
60.210 4.766925
60.215 4.832051
60.220 4.938762
60.225 5.159475
60.230 5.335181
60.235 5.062294
60.240 5.156206
60.245 5.670939
60.250 5.635799
60.255 5.058429
60.260 4.799674
60.265 4.984436
60.270 5.11465
60.275 4.781086
60.280 4.659517
60.285 4.888241
60.290 5.177479
60.295 5.35089
60.300 5.365296
60.305 5.713303
60.310 5.901887
60.315 5.640397
60.320 5.354791
60.325 5.508116
60.330 5.257847
60.335 5.068199
60.340 4.725308
60.345 4.837497
60.350 5.180968
60.355 5.379613
60.360 5.506955
60.365 5.71615
60.370 5.790242
60.375 6.115391
60.380 6.171597
60.385 6.201252
60.390 6.369265
60.395 6.294632
60.400 6.367849
60.405 6.377926
60.410 5.973379
60.415 5.774993
60.420 5.62457
60.425 5.263569
60.430 5.189858
60.435 5.241894
60.440 4.995664
60.445 4.949897
60.450 4.978255
60.455 5.035338
60.460 5.297552
60.465 5.231143
60.470 5.397292
60.475 5.888792
60.480 5.895397
60.485 5.89561
60.490 5.584232
60.495 5.255087
60.500 5.080429
60.505 4.749576
60.510 4.309633
60.515 4.165326
60.520 4.313947
60.525 4.570532
60.530 4.677908
60.535 4.696634
60.540 4.659563
60.545 4.853795
60.550 4.952814
60.555 4.838602
60.560 4.821066
60.565 4.902534
60.570 5.323703
60.575 5.315159
60.580 5.302518
60.585 5.197789
60.590 5.075488
60.595 4.939215
60.600 4.683932
60.605 4.296774
60.610 4.13726
60.615 4.056094
60.620 4.179074
60.625 4.817067
60.630 5.016921
60.635 4.918304
60.640 5.113495
60.645 5.365612
60.650 5.614981
60.655 5.669454
60.660 5.450561
60.665 5.686653
60.670 6.044973
60.675 6.013125
60.680 6.23729
60.685 6.309164
60.690 6.292024
60.695 6.222622
60.700 5.931226
60.705 5.75283
60.710 5.607585
60.715 5.320534
60.720 4.9982
60.725 4.909855
60.730 4.388263
60.735 4.346369
