!@!!GADDS PLOTSO FILE: Chi integration type
!@!!Title/SampleName: map-0
!@!!Comment: ?
!@!!User: Bruker Instrument Administrator
!@!!Site: University of Illinois Chicago
!@!!Frame: map-0_01_000.gfrm
!@!!Wavelengths    1.54184   1.54056   1.54439
!@!!Frame angles: 2Theta: 65.000 Omega: 50.000 Phi: 0.000 Chi: 90.000
!@!!Integration range: 2Theta: 55.000 to 75.000  Gamma: -105.000 to -75.000
!@!!Integration method: bin normalized
!@!N
!@!SS
!@!M
!@!L 0.0 0.0 0.0 0.0
!@!XDegrees
!@!YCounts
55.000 4.00041
55.005 4.185975
55.010 4.095153
55.015 4.068739
55.020 4.284683
55.025 4.33964
55.030 4.255592
55.035 4.195969
55.040 4.305452
55.045 4.306563
55.050 4.279879
55.055 4.342978
55.060 4.716345
55.065 4.949999
55.070 4.928505
55.075 5.086776
55.080 4.943865
55.085 4.859176
55.090 4.452359
55.095 4.42429
55.100 4.504847
55.105 4.511317
55.110 4.489956
55.115 4.822345
55.120 4.683664
55.125 4.727491
55.130 4.411622
55.135 4.614542
55.140 4.691792
55.145 4.834647
55.150 4.52069
55.155 4.769173
55.160 4.985313
55.165 5.454376
55.170 5.172749
55.175 4.852685
55.180 4.823159
55.185 4.756956
55.190 4.477315
55.195 4.523126
55.200 4.078088
55.205 4.226143
55.210 4.13375
55.215 4.31207
55.220 4.664864
55.225 4.655815
55.230 4.594647
55.235 4.790173
55.240 4.860489
55.245 4.965643
55.250 4.592849
55.255 4.460743
55.260 4.640052
55.265 4.69744
55.270 4.890594
55.275 4.699437
55.280 4.70776
55.285 4.557939
55.290 4.436379
55.295 4.234465
55.300 3.921646
55.305 3.587616
55.310 3.67889
55.315 3.877641
55.320 3.992884
55.325 3.969509
55.330 4.062666
55.335 4.11166
55.340 4.393427
55.345 4.377757
55.350 4.353027
55.355 4.440971
55.360 4.511484
55.365 4.213009
55.370 4.367912
55.375 4.341581
55.380 4.52863
55.385 4.837231
55.390 4.81796
55.395 4.761226
55.400 4.894379
55.405 4.706275
55.410 4.639113
55.415 4.620883
55.420 4.130877
55.425 4.186029
55.430 4.496428
55.435 4.580406
55.440 4.749994
55.445 4.542635
55.450 4.357611
55.455 4.523316
55.460 4.552198
55.465 4.740477
55.470 4.630017
55.475 4.491648
55.480 4.577485
55.485 4.959591
55.490 5.172697
55.495 5.114043
55.500 4.906669
55.505 5.224384
55.510 5.31534
55.515 5.105233
55.520 4.611618
55.525 4.488552
55.530 4.675331
55.535 4.562555
55.540 4.393502
55.545 4.465382
55.550 4.477737
55.555 4.439878
55.560 4.100074
55.565 3.58851
55.570 3.488518
55.575 3.42581
55.580 3.328823
55.585 3.646222
55.590 3.725354
55.595 4.260398
55.600 4.696931
55.605 4.788237
55.610 4.911104
55.615 4.990116
55.620 5.085504
55.625 5.373986
55.630 5.221612
55.635 4.991446
55.640 5.056749
55.645 5.132294
55.650 5.155661
55.655 5.064904
55.660 4.70754
55.665 4.611058
55.670 4.742587
55.675 4.805903
55.680 4.823472
55.685 4.742965
55.690 4.905716
55.695 4.940117
55.700 4.965553
55.705 4.712976
55.710 4.404427
55.715 4.141451
55.720 4.442427
55.725 4.898479
55.730 5.171153
55.735 5.443095
55.740 5.910062
55.745 6.144366
55.750 6.180237
55.755 5.997563
55.760 5.715339
55.765 5.790308
55.770 5.686792
55.775 5.342595
55.780 5.276384
55.785 5.275999
55.790 5.154092
55.795 4.697839
55.800 4.315679
55.805 4.27218
55.810 4.22503
55.815 4.229689
55.820 4.268838
55.825 4.179201
55.830 4.688864
55.835 4.892269
55.840 4.979305
55.845 5.201416
55.850 5.218517
55.855 5.220271
55.860 5.174681
55.865 5.074465
55.870 5.022669
55.875 4.882932
55.880 4.578439
55.885 4.642272
55.890 4.632574
55.895 4.729739
55.900 4.796271
55.905 4.94256
55.910 5.19249
55.915 5.415434
55.920 5.308201
55.925 5.029014
55.930 5.236086
55.935 5.146874
55.940 5.218944
55.945 5.345111
55.950 5.326462
55.955 5.439382
55.960 5.726923
55.965 5.829206
55.970 5.535857
55.975 5.052763
55.980 4.680596
55.985 4.69866
55.990 4.672967
55.995 4.37338
56.000 3.99462
56.005 4.279261
56.010 4.373672
56.015 4.437232
56.020 4.232392
56.025 3.964509
56.030 3.932245
56.035 3.850864
56.040 3.638294
56.045 3.84725
56.050 4.066014
56.055 4.214714
56.060 4.37864
56.065 4.038533
56.070 3.928793
56.075 3.709142
56.080 3.406064
56.085 3.483254
56.090 3.485424
56.095 3.797411
56.100 4.376064
56.105 4.615376
56.110 5.1504
56.115 5.346004
56.120 5.204084
56.125 5.289457
56.130 5.481422
56.135 5.51533
56.140 5.396235
56.145 5.218768
56.150 5.311336
56.155 5.306139
56.160 5.129342
56.165 4.680181
56.170 4.619478
56.175 4.398446
56.180 4.189623
56.185 4.413566
56.190 4.523287
56.195 4.553719
56.200 4.661564
56.205 4.843871
56.210 5.112403
56.215 4.902719
56.220 4.414342
56.225 4.493995
56.230 4.706458
56.235 4.757621
56.240 4.476597
56.245 4.454169
56.250 4.83766
56.255 5.110506
56.260 4.988511
56.265 5.122913
56.270 5.082513
56.275 5.36757
56.280 5.439127
56.285 5.180808
56.290 4.967126
56.295 4.909964
56.300 4.473638
56.305 4.445874
56.310 4.26478
56.315 4.080523
56.320 3.940225
56.325 3.874859
56.330 3.717925
56.335 3.572653
56.340 3.569634
56.345 3.572902
56.350 3.946357
56.355 4.288171
56.360 4.373506
56.365 4.676276
56.370 4.774329
56.375 5.016181
56.380 5.110759
56.385 5.09651
56.390 5.243382
56.395 5.375398
56.400 5.344383
56.405 5.439984
56.410 5.438067
56.415 5.450466
56.420 5.295232
56.425 5.482238
56.430 5.315268
56.435 5.329439
56.440 5.384861
56.445 5.196506
56.450 5.047893
56.455 5.09631
56.460 5.147089
56.465 5.203486
56.470 5.044513
56.475 4.890751
56.480 5.056215
56.485 5.199227
56.490 4.929518
56.495 4.749393
56.500 4.666285
56.505 5.141256
56.510 5.301223
56.515 5.102688
56.520 5.057415
56.525 4.83586
56.530 4.862769
56.535 5.004483
56.540 4.676643
56.545 4.324947
56.550 4.355357
56.555 4.243941
56.560 4.411633
56.565 4.559062
56.570 4.664941
56.575 4.85156
56.580 5.394218
56.585 5.837349
56.590 5.832662
56.595 5.786619
56.600 5.692853
56.605 5.537447
56.610 5.516036
56.615 5.251896
56.620 5.066218
56.625 5.439273
56.630 5.168964
56.635 5.033765
56.640 5.299532
56.645 5.409147
56.650 5.293722
56.655 5.117568
56.660 4.925338
56.665 4.876649
56.670 4.510005
56.675 4.400891
56.680 4.199075
56.685 4.198558
56.690 4.127224
56.695 4.179408
56.700 4.298696
56.705 4.455947
56.710 4.293732
56.715 4.206082
56.720 4.177768
56.725 4.49579
56.730 4.490543
56.735 4.42567
56.740 4.444556
56.745 4.367507
56.750 4.727014
56.755 4.646384
56.760 4.433436
56.765 4.41989
56.770 4.444208
56.775 4.417042
56.780 4.446927
56.785 4.457892
56.790 4.410547
56.795 4.448981
56.800 4.679497
56.805 4.692895
56.810 4.548802
56.815 4.596486
56.820 4.492425
56.825 4.520429
56.830 4.584404
56.835 4.505833
56.840 4.827986
56.845 5.068025
56.850 5.291933
56.855 5.490102
56.860 5.412101
56.865 5.366779
56.870 5.539061
56.875 5.459887
56.880 5.582259
56.885 5.425147
56.890 5.277141
56.895 5.342276
56.900 5.220065
56.905 5.174398
56.910 5.185022
56.915 4.970341
56.920 4.626162
56.925 4.775875
56.930 5.124961
56.935 5.110282
56.940 4.849744
56.945 5.023736
56.950 5.467422
56.955 5.810627
56.960 5.793992
56.965 5.497689
56.970 5.527778
56.975 5.527513
56.980 5.227471
56.985 5.396027
56.990 5.613664
56.995 5.558907
57.000 5.428042
57.005 5.438841
57.010 5.821939
57.015 5.557636
57.020 4.976304
57.025 4.748497
57.030 5.032194
57.035 5.342025
57.040 5.34678
57.045 5.244161
57.050 5.679477
57.055 5.888272
57.060 5.511676
57.065 5.495785
57.070 5.459081
57.075 5.366655
57.080 5.123785
57.085 4.706992
57.090 4.644309
57.095 4.825303
57.100 4.737514
57.105 4.474351
57.110 4.632062
57.115 5.063931
57.120 5.177275
57.125 5.237621
57.130 5.25937
57.135 5.346205
57.140 5.396542
57.145 5.386466
57.150 5.349212
57.155 5.227674
57.160 4.975494
57.165 4.684303
57.170 4.516196
57.175 4.552896
57.180 4.253252
57.185 4.015025
57.190 4.271632
57.195 4.632918
57.200 5.010774
57.205 5.190289
57.210 5.106844
57.215 5.208476
57.220 5.526032
57.225 5.149419
57.230 5.01721
57.235 4.947004
57.240 4.854743
57.245 4.98687
57.250 5.043713
57.255 4.852921
57.260 4.871859
57.265 4.531194
57.270 4.453728
57.275 4.596168
57.280 4.494485
57.285 4.496271
57.290 4.728023
57.295 4.607009
57.300 4.705231
57.305 4.390612
57.310 4.336374
57.315 4.385469
57.320 4.642006
57.325 4.785903
57.330 5.167153
57.335 5.409629
57.340 5.58116
57.345 5.812063
57.350 5.650009
57.355 5.250132
57.360 5.105251
57.365 4.881031
57.370 5.002365
57.375 4.937309
57.380 4.680699
57.385 4.519155
57.390 4.442051
57.395 4.409643
57.400 4.198848
57.405 4.344909
57.410 4.700876
57.415 5.069259
57.420 5.275876
57.425 4.981807
57.430 4.955777
57.435 5.018705
57.440 4.562939
57.445 4.28139
57.450 4.118432
57.455 4.111717
57.460 4.373113
57.465 4.410342
57.470 4.410593
57.475 4.323249
57.480 4.222374
57.485 4.140606
57.490 4.189944
57.495 4.260442
57.500 4.633049
57.505 4.786465
57.510 4.718262
57.515 4.557623
57.520 4.711663
57.525 4.788606
57.530 4.62312
57.535 4.426309
57.540 4.465938
57.545 4.915402
57.550 5.214909
57.555 5.22531
57.560 5.203276
57.565 5.243798
57.570 5.4672
57.575 5.539917
57.580 5.632657
57.585 5.730693
57.590 5.654349
57.595 5.662188
57.600 5.836593
57.605 5.859546
57.610 5.950038
57.615 6.065946
57.620 6.046766
57.625 5.922373
57.630 5.905763
57.635 5.583534
57.640 5.603897
57.645 5.236944
57.650 4.763262
57.655 4.829888
57.660 4.940725
57.665 5.083325
57.670 5.191907
57.675 5.144277
57.680 5.317633
57.685 5.217445
57.690 4.933156
57.695 4.738485
57.700 4.77594
57.705 4.542068
57.710 4.501734
57.715 4.755177
57.720 4.898216
57.725 5.142104
57.730 5.124836
57.735 5.21184
57.740 5.15803
57.745 5.000155
57.750 4.851815
57.755 4.94531
57.760 4.734092
57.765 4.917996
57.770 5.086174
57.775 5.391055
57.780 5.676613
57.785 5.729313
57.790 5.882691
57.795 6.155592
57.800 5.866098
57.805 5.336603
57.810 5.212965
57.815 4.92697
57.820 4.781388
57.825 4.874029
57.830 4.683331
57.835 4.796905
57.840 5.218657
57.845 5.124952
57.850 5.290587
57.855 5.169099
57.860 5.089289
57.865 5.124203
57.870 4.945503
57.875 4.569791
57.880 4.432146
57.885 4.390374
57.890 4.342956
57.895 4.245777
57.900 4.461969
57.905 4.517441
57.910 4.876771
57.915 4.973279
57.920 4.695369
57.925 4.515851
57.930 4.478242
57.935 4.637315
57.940 4.795061
57.945 4.642914
57.950 4.614177
57.955 4.622008
57.960 4.772641
57.965 4.597865
57.970 4.523436
57.975 4.525947
57.980 4.18242
57.985 4.355639
57.990 4.565792
57.995 4.445638
58.000 4.589942
58.005 4.255633
58.010 4.194554
58.015 4.476812
58.020 4.298542
58.025 4.31804
58.030 4.410766
58.035 4.274508
58.040 4.471251
58.045 4.638161
58.050 4.842562
58.055 5.182024
58.060 5.270172
58.065 5.046471
58.070 4.930438
58.075 4.736555
58.080 4.438552
58.085 4.559209
58.090 4.548794
58.095 4.450944
58.100 4.66189
58.105 4.919797
58.110 4.95331
58.115 4.90975
58.120 4.730538
58.125 4.588093
58.130 4.823918
58.135 5.11591
58.140 5.090561
58.145 5.360959
58.150 5.384822
58.155 5.411173
58.160 5.393502
58.165 5.243052
58.170 4.900832
58.175 4.830503
58.180 4.526962
58.185 4.568728
58.190 4.346628
58.195 4.212003
58.200 4.263549
58.205 4.435558
58.210 4.652291
58.215 4.777571
58.220 4.869981
58.225 4.996475
58.230 4.978776
58.235 5.078736
58.240 5.011218
58.245 4.594742
58.250 4.501326
58.255 4.738381
58.260 5.341734
58.265 5.301722
58.270 5.112444
58.275 5.079698
58.280 5.16308
58.285 5.392592
58.290 5.137736
58.295 4.96791
58.300 5.445586
58.305 5.571024
58.310 5.783412
58.315 6.149167
58.320 5.933813
58.325 5.884524
58.330 5.698823
58.335 5.459146
58.340 5.313639
58.345 5.047357
58.350 4.992365
58.355 4.842452
58.360 4.966684
58.365 4.962504
58.370 4.771303
58.375 4.805716
58.380 4.829211
58.385 4.406301
58.390 4.682377
58.395 4.740996
58.400 4.744331
58.405 5.12422
58.410 5.099887
58.415 5.199253
58.420 5.500422
58.425 5.178843
58.430 5.293508
58.435 5.374826
58.440 5.267692
58.445 5.583797
58.450 5.713164
58.455 6.00839
58.460 6.042771
58.465 5.787469
58.470 5.518239
58.475 5.410584
58.480 5.152511
58.485 5.28512
58.490 5.15415
58.495 4.988295
58.500 5.1483
58.505 5.288336
58.510 5.358809
58.515 5.251557
58.520 5.579855
58.525 5.787709
58.530 6.222514
58.535 6.235898
58.540 6.215368
58.545 6.516074
58.550 6.640529
58.555 6.391806
58.560 6.312995
58.565 5.885179
58.570 5.942743
58.575 5.911948
58.580 5.859354
58.585 6.095315
58.590 5.945095
58.595 5.930136
58.600 6.44525
58.605 6.557291
58.610 6.87287
58.615 7.189127
58.620 6.855547
58.625 6.864513
58.630 6.620221
58.635 6.55018
58.640 6.578053
58.645 6.498082
58.650 6.589507
58.655 6.864754
58.660 7.430729
58.665 8.192764
58.670 8.500454
58.675 8.869871
58.680 8.804727
58.685 8.537587
58.690 8.60636
58.695 8.366841
58.700 8.54508
58.705 8.565522
58.710 8.520947
58.715 8.79415
58.720 8.865665
58.725 8.968978
58.730 9.151218
58.735 9.241588
58.740 9.41928
58.745 9.318635
58.750 9.622391
58.755 9.664027
58.760 9.759469
58.765 9.977549
58.770 9.954222
58.775 9.804486
58.780 9.980911
58.785 9.84932
58.790 10.528279
58.795 10.98896
58.800 10.828759
58.805 10.543888
58.810 10.691985
58.815 10.765072
58.820 10.391447
58.825 10.035117
58.830 9.906447
58.835 10.035175
58.840 10.137167
58.845 9.77647
58.850 9.912767
58.855 9.850517
58.860 9.98315
58.865 10.023099
58.870 10.112482
58.875 10.086449
58.880 10.282236
58.885 10.684622
58.890 10.893419
58.895 11.076691
58.900 11.066155
58.905 10.923504
58.910 11.258953
58.915 10.952097
58.920 10.553131
58.925 10.813517
58.930 10.761681
58.935 10.755957
58.940 10.625374
58.945 10.783714
58.950 10.839875
58.955 10.696937
58.960 10.361555
58.965 9.631919
58.970 9.263392
58.975 9.389416
58.980 9.262359
58.985 9.467266
58.990 9.657183
58.995 9.951218
59.000 10.185745
59.005 9.774765
59.010 9.283064
59.015 9.209482
59.020 9.140109
59.025 9.015382
59.030 9.067005
59.035 8.901152
59.040 8.94315
59.045 9.209375
59.050 9.165919
59.055 8.938041
59.060 8.505313
59.065 8.279367
59.070 8.679656
59.075 9.043106
59.080 8.673516
59.085 8.871126
59.090 8.846602
59.095 9.11952
59.100 9.469189
59.105 9.285186
59.110 9.102017
59.115 8.735082
59.120 8.154301
59.125 8.000105
59.130 7.998354
59.135 7.736595
59.140 7.611673
59.145 7.355388
59.150 7.494382
59.155 7.089878
59.160 7.01011
59.165 6.635073
59.170 6.5833
59.175 6.66323
59.180 6.884195
59.185 7.40548
59.190 8.033813
59.195 8.199883
59.200 8.060894
59.205 7.981387
59.210 7.791817
59.215 7.250083
59.220 6.804617
59.225 6.397917
59.230 6.875828
59.235 6.920211
59.240 7.023349
59.245 7.287
59.250 7.445974
59.255 7.76494
59.260 7.980686
59.265 7.847766
59.270 7.979299
59.275 8.022539
59.280 8.119417
59.285 8.03459
59.290 8.11056
59.295 8.104353
59.300 8.064426
59.305 8.234284
59.310 8.349754
59.315 8.1427
59.320 8.219162
59.325 8.328241
59.330 8.258729
59.335 8.561062
59.340 8.120657
59.345 8.138565
59.350 8.383242
59.355 8.502894
59.360 8.327154
59.365 8.071943
59.370 8.084542
59.375 8.230448
59.380 8.016433
59.385 8.285012
59.390 8.616709
59.395 8.571728
59.400 8.436256
59.405 7.982136
59.410 8.28425
59.415 8.58997
59.420 8.042549
59.425 7.70355
59.430 7.59338
59.435 7.742531
59.440 7.989573
59.445 7.895368
59.450 8.00824
59.455 8.06529
59.460 8.272177
59.465 8.722925
59.470 8.83657
59.475 8.987927
59.480 9.226308
59.485 9.562525
59.490 9.773412
59.495 9.820172
59.500 9.529768
59.505 9.362396
59.510 9.162932
59.515 9.026803
59.520 8.82003
59.525 8.706993
59.530 8.553795
59.535 8.950483
59.540 9.204354
59.545 9.496208
59.550 9.448125
59.555 9.552115
59.560 10.04082
59.565 10.199461
59.570 10.433969
59.575 10.55838
59.580 10.507081
59.585 10.707542
59.590 10.995999
59.595 10.741935
59.600 10.487687
59.605 9.710313
59.610 9.563578
59.615 9.092471
59.620 8.835923
59.625 8.35454
59.630 8.499527
59.635 8.364396
59.640 8.832198
59.645 8.695863
59.650 8.583629
59.655 8.48028
59.660 8.544358
59.665 8.29994
59.670 8.307461
59.675 7.915706
59.680 8.138804
59.685 8.430134
59.690 8.406655
59.695 7.930485
59.700 8.161177
59.705 8.140646
59.710 8.097369
59.715 7.886546
59.720 8.022027
59.725 8.233611
59.730 8.36332
59.735 8.074711
59.740 8.069727
59.745 7.982841
59.750 7.825734
59.755 7.505594
59.760 7.379012
59.765 7.288306
59.770 7.002968
59.775 6.63984
59.780 6.509188
59.785 6.296148
59.790 5.904177
59.795 5.627369
59.800 5.383336
59.805 5.656246
59.810 5.842639
59.815 6.009983
59.820 6.174036
59.825 6.449551
59.830 6.476601
59.835 6.671834
59.840 6.706994
59.845 6.893403
59.850 6.804698
59.855 6.558017
59.860 6.308453
59.865 6.122457
59.870 6.242184
59.875 6.056756
59.880 6.010579
59.885 6.074941
59.890 6.435945
59.895 6.513347
59.900 6.448606
59.905 6.382593
59.910 6.081813
59.915 5.990066
59.920 5.766311
59.925 5.458243
59.930 5.64649
59.935 5.602944
59.940 5.079162
59.945 4.998497
59.950 5.112228
59.955 5.304349
59.960 5.49115
59.965 5.296597
59.970 5.590757
59.975 5.802902
59.980 5.832905
59.985 5.55642
59.990 5.697228
59.995 5.575634
60.000 6.028332
60.005 5.944798
60.010 6.282433
60.015 6.653173
60.020 6.983515
60.025 6.757071
60.030 6.630889
60.035 6.095984
60.040 6.074806
60.045 5.951819
60.050 5.63991
60.055 5.60352
60.060 5.600909
60.065 5.470192
60.070 5.83315
60.075 5.653821
60.080 5.333647
60.085 5.406462
60.090 5.110267
60.095 5.172779
60.100 5.474609
60.105 5.094959
60.110 5.096317
60.115 5.516303
60.120 5.581883
60.125 5.808322
60.130 5.564355
60.135 5.067669
60.140 4.731502
60.145 4.673676
60.150 4.551135
60.155 4.357337
60.160 4.389147
60.165 4.712555
60.170 4.991133
60.175 5.283831
60.180 5.436584
60.185 5.646483
60.190 5.670355
60.195 5.60632
60.200 5.616791
60.205 5.550265
60.210 5.671371
60.215 5.582257
60.220 5.365607
60.225 5.387194
60.230 5.329234
60.235 5.248742
60.240 5.215128
60.245 5.084648
60.250 4.950312
60.255 4.79626
60.260 4.78202
60.265 4.985132
60.270 5.013519
60.275 4.985217
60.280 5.076474
60.285 4.973951
60.290 4.879277
60.295 4.866917
60.300 4.892553
60.305 4.881355
60.310 4.949141
60.315 5.086924
60.320 5.109233
60.325 5.40501
60.330 5.137195
60.335 5.029076
60.340 5.187016
60.345 5.323874
60.350 5.266778
60.355 5.72272
60.360 6.068852
60.365 6.709857
60.370 6.712181
60.375 6.489985
60.380 6.316566
60.385 6.525245
60.390 6.080739
60.395 5.80464
60.400 5.395555
60.405 5.651919
60.410 5.660024
60.415 5.615293
60.420 5.499962
60.425 5.602425
60.430 5.850298
60.435 6.051682
60.440 5.679457
60.445 5.709717
60.450 5.794508
60.455 5.916291
60.460 5.853255
60.465 5.470522
60.470 5.459805
60.475 5.741757
60.480 5.862216
60.485 5.924131
60.490 5.629941
60.495 5.725476
60.500 5.730354
60.505 5.491686
60.510 5.030878
60.515 4.995314
60.520 4.932069
60.525 4.827239
60.530 4.393897
60.535 4.442922
60.540 4.706961
60.545 5.175271
60.550 5.207982
60.555 5.352217
60.560 5.566645
60.565 5.839877
60.570 5.786642
60.575 5.949944
60.580 6.017778
60.585 5.929995
60.590 5.691929
60.595 5.547941
60.600 5.444499
60.605 5.617657
60.610 5.493656
60.615 5.200431
60.620 5.606438
60.625 6.147601
60.630 6.125641
60.635 5.954239
60.640 5.639228
60.645 5.513968
60.650 5.727039
60.655 5.416702
60.660 5.101968
60.665 5.407783
60.670 5.657588
60.675 5.694996
60.680 5.561021
60.685 5.20142
60.690 5.177983
60.695 5.180626
60.700 4.972585
60.705 5.077838
60.710 4.98912
60.715 4.996724
60.720 5.114598
60.725 5.014782
60.730 4.831437
60.735 4.716814
60.740 4.656131
60.745 4.984334
60.750 4.891762
