!@!!GADDS PLOTSO FILE: Chi integration type
!@!!Title/SampleName: map-0
!@!!Comment: ?
!@!!User: Bruker Instrument Administrator
!@!!Site: University of Illinois Chicago
!@!!Frame: map-0_01_000.gfrm
!@!!Wavelengths    1.54184   1.54056   1.54439
!@!!Frame angles: 2Theta: 65.000 Omega: 50.000 Phi: 0.000 Chi: 90.000
!@!!Integration range: 2Theta: 55.000 to 75.000  Gamma: -105.000 to -75.000
!@!!Integration method: bin normalized
!@!N
!@!SS
!@!M
!@!L 0.0 0.0 0.0 0.0
!@!XDegrees
!@!YCounts
55.000 4.658587
55.005 4.215566
55.010 3.959311
55.015 4.055514
55.020 4.603246
55.025 4.942664
55.030 4.653863
55.035 4.513449
55.040 4.829464
55.045 5.065253
55.050 5.133083
55.055 5.084975
55.060 5.232343
55.065 5.375376
55.070 5.350832
55.075 4.945144
55.080 5.065469
55.085 5.155654
55.090 5.128124
55.095 4.893467
55.100 4.719305
55.105 4.78276
55.110 4.704933
55.115 4.358446
55.120 4.372894
55.125 4.320183
55.130 4.351621
55.135 4.372249
55.140 4.318306
55.145 4.64034
55.150 4.583331
55.155 4.414918
55.160 4.32758
55.165 4.234672
55.170 4.134041
55.175 4.115806
55.180 4.068236
55.185 4.265455
55.190 4.155821
55.195 4.137956
55.200 4.211471
55.205 4.419568
55.210 4.420583
55.215 3.74583
55.220 3.802034
55.225 4.104282
55.230 3.911786
55.235 4.094202
55.240 4.105781
55.245 4.276509
55.250 4.836196
55.255 4.939683
55.260 4.6106
55.265 4.652996
55.270 4.384284
55.275 4.389071
55.280 4.343378
55.285 4.545745
55.290 4.591216
55.295 5.071986
55.300 5.297147
55.305 5.400944
55.310 5.461701
55.315 5.514448
55.320 5.417938
55.325 5.590627
55.330 5.339759
55.335 5.565131
55.340 5.714748
55.345 6.021994
55.350 6.150662
55.355 5.83611
55.360 5.531397
55.365 5.300173
55.370 4.877423
55.375 4.40351
55.380 4.131734
55.385 3.865931
55.390 4.050573
55.395 4.408641
55.400 4.565614
55.405 4.919976
55.410 5.020208
55.415 5.041749
55.420 4.917426
55.425 4.728867
55.430 4.496732
55.435 4.860662
55.440 4.973593
55.445 4.933887
55.450 4.871572
55.455 5.049475
55.460 5.261377
55.465 5.025309
55.470 4.858212
55.475 4.858081
55.480 4.545003
55.485 4.424792
55.490 4.44267
55.495 4.360473
55.500 4.085582
55.505 3.556205
55.510 3.776036
55.515 4.221297
55.520 4.389954
55.525 4.311497
55.530 4.590698
55.535 5.169539
55.540 5.310143
55.545 5.102788
55.550 5.07157
55.555 4.785844
55.560 4.543779
55.565 4.304448
55.570 4.351145
55.575 4.373533
55.580 4.436284
55.585 4.364669
55.590 4.628458
55.595 4.604073
55.600 4.555635
55.605 4.762041
55.610 5.06838
55.615 5.346945
55.620 5.378388
55.625 5.42286
55.630 5.638467
55.635 5.428645
55.640 5.034264
55.645 4.953605
55.650 4.545986
55.655 4.549107
55.660 4.536406
55.665 4.485891
55.670 4.681551
55.675 4.531413
55.680 4.629863
55.685 4.827362
55.690 4.734805
55.695 4.447358
55.700 4.384925
55.705 4.493905
55.710 4.622064
55.715 4.459376
55.720 3.941573
55.725 4.075865
55.730 4.081799
55.735 4.109162
55.740 4.074663
55.745 3.866903
55.750 3.998015
55.755 3.967824
55.760 3.613154
55.765 3.619205
55.770 3.404071
55.775 3.305676
55.780 3.366767
55.785 3.557603
55.790 4.116744
55.795 4.769207
55.800 4.999904
55.805 4.933318
55.810 4.991511
55.815 4.983163
55.820 5.091488
55.825 4.953906
55.830 4.670143
55.835 4.811084
55.840 4.911494
55.845 5.002455
55.850 4.641641
55.855 4.464735
55.860 4.392438
55.865 4.588328
55.870 4.44417
55.875 4.563927
55.880 4.660392
55.885 4.750652
55.890 4.637916
55.895 4.269836
55.900 4.172583
55.905 4.10789
55.910 3.849083
55.915 3.97039
55.920 4.212618
55.925 4.17479
55.930 4.51647
55.935 4.418167
55.940 4.537787
55.945 4.604737
55.950 4.648639
55.955 4.710959
55.960 5.056772
55.965 4.746415
55.970 4.78224
55.975 4.636386
55.980 4.34933
55.985 4.282577
55.990 4.281227
55.995 4.102829
56.000 4.153952
56.005 4.291897
56.010 4.192602
56.015 4.347514
56.020 4.417262
56.025 4.082336
56.030 4.227902
56.035 4.365495
56.040 4.50461
56.045 4.719912
56.050 4.609776
56.055 4.624844
56.060 4.73727
56.065 4.570575
56.070 4.329065
56.075 4.517192
56.080 4.916875
56.085 4.826671
56.090 4.640509
56.095 4.640121
56.100 4.692094
56.105 4.746012
56.110 4.417797
56.115 4.006443
56.120 4.031353
56.125 4.122128
56.130 4.22792
56.135 4.214223
56.140 4.155771
56.145 4.380593
56.150 4.523936
56.155 4.710639
56.160 5.139357
56.165 5.271231
56.170 5.287516
56.175 5.353696
56.180 5.181724
56.185 5.180289
56.190 4.859653
56.195 4.359521
56.200 4.538516
56.205 4.379914
56.210 4.22045
56.215 4.178933
56.220 4.168935
56.225 4.601942
56.230 4.674753
56.235 4.784501
56.240 4.823807
56.245 4.967167
56.250 4.849301
56.255 4.781196
56.260 4.576548
56.265 4.428632
56.270 3.985681
56.275 3.854873
56.280 4.111136
56.285 4.154101
56.290 4.176908
56.295 4.016399
56.300 4.148465
56.305 4.56728
56.310 4.547322
56.315 4.344513
56.320 4.557635
56.325 4.837132
56.330 4.90759
56.335 5.19412
56.340 5.057607
56.345 5.110398
56.350 5.156904
56.355 5.180641
56.360 5.051119
56.365 5.073984
56.370 4.984551
56.375 5.081486
56.380 4.938777
56.385 4.874697
56.390 4.519903
56.395 4.611023
56.400 4.43614
56.405 4.227504
56.410 4.208938
56.415 4.448303
56.420 4.161467
56.425 4.415575
56.430 4.543625
56.435 4.542496
56.440 4.43887
56.445 4.375455
56.450 4.389639
56.455 4.742817
56.460 4.547176
56.465 4.626275
56.470 4.806193
56.475 4.878085
56.480 4.721717
56.485 4.749466
56.490 4.753326
56.495 4.865386
56.500 4.717238
56.505 4.759536
56.510 4.945201
56.515 4.979673
56.520 4.75159
56.525 4.889321
56.530 4.785221
56.535 4.450778
56.540 4.272133
56.545 4.296144
56.550 4.457343
56.555 4.612522
56.560 4.298749
56.565 4.35239
56.570 4.636221
56.575 4.912079
56.580 5.234203
56.585 4.89366
56.590 4.681734
56.595 4.656852
56.600 4.724436
56.605 5.020537
56.610 4.6559
56.615 4.53782
56.620 5.083107
56.625 5.322236
56.630 5.404124
56.635 5.175871
56.640 5.015382
56.645 4.928654
56.650 4.982673
56.655 4.80315
56.660 4.863612
56.665 4.919692
56.670 4.984394
56.675 5.056419
56.680 5.058413
56.685 5.13617
56.690 4.930587
56.695 4.669344
56.700 4.69184
56.705 4.494844
56.710 4.339684
56.715 4.219519
56.720 4.042749
56.725 4.068748
56.730 4.133536
56.735 4.09084
56.740 4.108256
56.745 4.517804
56.750 4.668542
56.755 4.937838
56.760 5.191367
56.765 5.062079
56.770 5.26615
56.775 5.283922
56.780 5.218484
56.785 5.289104
56.790 4.905546
56.795 4.913831
56.800 5.03353
56.805 5.234179
56.810 5.13734
56.815 4.78353
56.820 4.400375
56.825 4.359169
56.830 4.489096
56.835 4.34861
56.840 4.306715
56.845 4.670103
56.850 4.818229
56.855 4.988739
56.860 4.999808
56.865 4.888748
56.870 5.053435
56.875 4.982884
56.880 5.349896
56.885 5.449641
56.890 5.435738
56.895 5.356177
56.900 5.372844
56.905 5.284734
56.910 4.857728
56.915 4.454921
56.920 4.330656
56.925 4.186527
56.930 4.176307
56.935 4.098123
56.940 3.904188
56.945 3.909905
56.950 3.862974
56.955 4.14659
56.960 4.484795
56.965 4.508745
56.970 4.716705
56.975 5.05292
56.980 5.357975
56.985 5.404964
56.990 5.394359
56.995 5.558866
57.000 5.350499
57.005 5.295898
57.010 5.156976
57.015 5.26304
57.020 5.031399
57.025 4.796952
57.030 4.640151
57.035 5.060058
57.040 4.925872
57.045 4.774382
57.050 4.724758
57.055 5.275119
57.060 5.465411
57.065 5.411496
57.070 5.36612
57.075 5.846604
57.080 5.957949
57.085 5.943083
57.090 5.624019
57.095 5.83029
57.100 6.070251
57.105 5.870981
57.110 5.828001
57.115 5.648817
57.120 5.460252
57.125 5.238015
57.130 4.886836
57.135 4.725214
57.140 4.684569
57.145 4.525051
57.150 4.429382
57.155 4.319571
57.160 4.302675
57.165 4.317933
57.170 4.08595
57.175 3.92325
57.180 4.211392
57.185 4.47738
57.190 4.872063
57.195 4.952911
57.200 5.045299
57.205 5.322746
57.210 5.313503
57.215 5.418406
57.220 5.491445
57.225 5.46248
57.230 5.667094
57.235 5.873051
57.240 5.875392
57.245 5.646271
57.250 5.253387
57.255 5.135715
57.260 4.859594
57.265 4.631168
57.270 4.779803
57.275 4.75737
57.280 4.856173
57.285 4.949723
57.290 5.094754
57.295 5.007217
57.300 4.856944
57.305 4.508728
57.310 4.441022
57.315 4.345499
57.320 4.045053
57.325 3.968064
57.330 4.13022
57.335 4.099921
57.340 4.0814
57.345 4.357605
57.350 4.558268
57.355 4.921308
57.360 5.055927
57.365 5.287762
57.370 5.152362
57.375 5.025521
57.380 4.943015
57.385 4.580257
57.390 4.754345
57.395 5.028556
57.400 4.993741
57.405 5.129863
57.410 5.351058
57.415 5.479565
57.420 5.563749
57.425 5.0832
57.430 5.021406
57.435 5.194567
57.440 5.421726
57.445 5.372527
57.450 5.584559
57.455 5.61026
57.460 5.459412
57.465 5.457982
57.470 5.109999
57.475 4.85836
57.480 4.772177
57.485 4.584158
57.490 4.67162
57.495 4.783175
57.500 5.192388
57.505 5.442686
57.510 5.564633
57.515 5.41408
57.520 5.255937
57.525 5.254849
57.530 4.971958
57.535 4.720536
57.540 4.639517
57.545 4.77214
57.550 5.074586
57.555 5.002126
57.560 5.013032
57.565 4.774609
57.570 4.628298
57.575 4.552252
57.580 4.451007
57.585 4.549092
57.590 4.555665
57.595 4.438994
57.600 4.733608
57.605 4.871056
57.610 5.595139
57.615 5.650637
57.620 5.720569
57.625 5.872104
57.630 5.992372
57.635 5.808207
57.640 5.685202
57.645 5.276147
57.650 5.127912
57.655 4.879339
57.660 4.761998
57.665 4.616215
57.670 4.670249
57.675 4.738491
57.680 4.690435
57.685 4.677629
57.690 4.665474
57.695 4.951328
57.700 5.195527
57.705 5.220231
57.710 5.232419
57.715 5.228688
57.720 5.421273
57.725 5.489754
57.730 5.128989
57.735 4.902445
57.740 4.748446
57.745 4.529137
57.750 4.414491
57.755 4.412629
57.760 4.68693
57.765 5.122221
57.770 5.368106
57.775 5.133317
57.780 5.206981
57.785 5.170847
57.790 4.977365
57.795 4.513332
57.800 4.202392
57.805 4.072773
57.810 4.260434
57.815 4.523251
57.820 4.857656
57.825 4.88847
57.830 5.122019
57.835 5.470905
57.840 5.780157
57.845 5.786816
57.850 5.740523
57.855 5.55019
57.860 5.482574
57.865 5.356456
57.870 5.370893
57.875 5.442175
57.880 5.34912
57.885 5.136034
57.890 5.438373
57.895 5.454568
57.900 5.453262
57.905 5.010408
57.910 4.976386
57.915 4.865252
57.920 4.864547
57.925 4.871448
57.930 4.891615
57.935 4.82127
57.940 4.472413
57.945 4.688987
57.950 4.912751
57.955 4.815757
57.960 4.643324
57.965 4.504109
57.970 4.344451
57.975 4.151601
57.980 3.631739
57.985 3.635776
57.990 3.772796
57.995 3.867859
58.000 4.064457
58.005 4.230794
58.010 4.775933
58.015 4.989727
58.020 4.708905
58.025 4.559521
58.030 4.667242
58.035 4.748209
58.040 4.963811
58.045 5.214462
58.050 5.213231
58.055 5.47707
58.060 5.756095
58.065 5.789526
58.070 5.962911
58.075 5.785059
58.080 5.407537
58.085 5.333178
58.090 5.053245
58.095 5.142862
58.100 5.058451
58.105 5.325357
58.110 5.234015
58.115 5.379521
58.120 5.601913
58.125 5.657656
58.130 5.451117
58.135 5.51877
58.140 5.274329
58.145 4.956144
58.150 4.598413
58.155 4.513683
58.160 4.33901
58.165 4.101678
58.170 3.99001
58.175 4.361103
58.180 4.772703
58.185 4.768612
58.190 4.799744
58.195 5.411137
58.200 5.597413
58.205 5.481102
58.210 5.39683
58.215 5.64664
58.220 5.824704
58.225 5.843852
58.230 5.773033
58.235 6.006021
58.240 5.929526
58.245 5.666883
58.250 5.562214
58.255 5.863233
58.260 5.597442
58.265 5.175384
58.270 4.618645
58.275 4.638437
58.280 4.528783
58.285 4.304625
58.290 4.529879
58.295 4.54677
58.300 4.699707
58.305 5.101144
58.310 5.591498
58.315 6.069518
58.320 5.779037
58.325 5.223598
58.330 5.198829
58.335 5.226771
58.340 4.940658
58.345 4.320457
58.350 4.145486
58.355 4.54599
58.360 4.661308
58.365 4.60319
58.370 4.587806
58.375 4.79344
58.380 5.089256
58.385 5.253731
58.390 5.307483
58.395 5.708586
58.400 5.956824
58.405 6.243326
58.410 6.401593
58.415 6.595914
58.420 6.312856
58.425 5.911537
58.430 5.766564
58.435 5.966762
58.440 5.919075
58.445 5.838401
58.450 5.694799
58.455 5.980741
58.460 6.585166
58.465 6.419449
58.470 6.162423
58.475 6.141268
58.480 6.063412
58.485 5.885685
58.490 5.700213
58.495 5.504985
58.500 5.38784
58.505 5.366285
58.510 5.296998
58.515 5.397566
58.520 5.21929
58.525 5.168517
58.530 4.99842
58.535 5.211708
58.540 5.132768
58.545 5.125538
58.550 5.441537
58.555 5.476027
58.560 5.293509
58.565 5.119667
58.570 5.190009
58.575 5.157438
58.580 5.001374
58.585 5.154353
58.590 5.491209
58.595 6.237773
58.600 6.341151
58.605 6.277497
58.610 6.635916
58.615 6.460328
58.620 6.344882
58.625 5.93338
58.630 5.497167
58.635 5.301728
58.640 5.395145
58.645 5.091211
58.650 5.385073
58.655 5.808093
58.660 6.692341
58.665 6.884395
58.670 7.031948
58.675 7.13685
58.680 7.436242
58.685 7.403409
58.690 7.270173
58.695 7.43362
58.700 7.586603
58.705 7.807124
58.710 7.749577
58.715 7.796049
58.720 8.083426
58.725 8.245958
58.730 7.978904
58.735 8.036349
58.740 8.176155
58.745 8.314823
58.750 8.05247
58.755 8.080574
58.760 7.905527
58.765 7.614484
58.770 7.670826
58.775 7.66967
58.780 7.416044
58.785 7.269302
58.790 6.98225
58.795 7.235329
58.800 7.307753
58.805 7.07929
58.810 7.31029
58.815 7.65768
58.820 7.813588
58.825 7.946579
58.830 8.043767
58.835 8.649829
58.840 9.013872
58.845 8.959098
58.850 8.803104
58.855 8.924637
58.860 9.061141
58.865 9.127181
58.870 9.024088
58.875 8.786554
58.880 8.493157
58.885 8.697758
58.890 8.400771
58.895 8.163722
58.900 7.62009
58.905 7.618637
58.910 8.021028
58.915 8.529033
58.920 8.676252
58.925 9.355595
58.930 9.63163
58.935 9.972541
58.940 9.812169
58.945 9.468169
58.950 9.290464
58.955 9.072142
58.960 9.020822
58.965 8.962708
58.970 8.96036
58.975 9.152922
58.980 8.952718
58.985 8.965322
58.990 9.431563
58.995 9.246449
59.000 9.242541
59.005 8.920602
59.010 8.703037
59.015 8.848552
59.020 8.70586
59.025 8.068259
59.030 7.800244
59.035 7.865886
59.040 7.736615
59.045 7.53231
59.050 7.609821
59.055 7.329385
59.060 7.325573
59.065 7.306793
59.070 7.370911
59.075 7.36758
59.080 7.195044
59.085 7.177053
59.090 7.654677
59.095 7.725166
59.100 7.791579
59.105 7.780747
59.110 7.839812
59.115 8.023412
59.120 7.692506
59.125 7.154906
59.130 7.045308
59.135 6.994726
59.140 7.33662
59.145 7.822312
59.150 7.628638
59.155 8.076993
59.160 8.453469
59.165 8.274986
59.170 7.781564
59.175 7.201611
59.180 6.493462
59.185 6.728529
59.190 6.53981
59.195 6.750544
59.200 7.026881
59.205 7.116779
59.210 7.291362
59.215 7.280205
59.220 7.167414
59.225 7.189461
59.230 6.818839
59.235 6.709235
59.240 7.077701
59.245 7.516469
59.250 7.786573
59.255 7.800771
59.260 7.681261
59.265 7.799616
59.270 8.048537
59.275 7.688104
59.280 7.274465
59.285 6.988233
59.290 6.97943
59.295 6.922827
59.300 7.034591
59.305 6.826182
59.310 6.85471
59.315 6.94737
59.320 7.036194
59.325 7.202034
59.330 7.306053
59.335 7.41203
59.340 7.261806
59.345 7.332171
59.350 7.208455
59.355 7.300795
59.360 7.689151
59.365 7.850413
59.370 8.125033
59.375 8.639704
59.380 9.013814
59.385 9.468762
59.390 9.462103
59.395 9.200311
59.400 8.881416
59.405 8.59153
59.410 8.060555
59.415 7.786927
59.420 7.633541
59.425 7.800828
59.430 7.780523
59.435 7.938306
59.440 7.91903
59.445 8.376428
59.450 8.397096
59.455 8.958321
59.460 8.562085
59.465 8.516778
59.470 8.695221
59.475 8.550598
59.480 8.618693
59.485 8.646671
59.490 8.567728
59.495 8.977141
59.500 9.531442
59.505 9.534638
59.510 9.743473
59.515 9.80297
59.520 10.084126
59.525 9.883473
59.530 9.57579
59.535 9.50668
59.540 9.67491
59.545 9.704685
59.550 9.587772
59.555 9.553039
59.560 9.905968
59.565 10.250708
59.570 10.159417
59.575 10.35211
59.580 10.804688
59.585 11.012482
59.590 10.981443
59.595 11.164643
59.600 10.873848
59.605 10.903187
59.610 10.536049
59.615 10.541431
59.620 10.55438
59.625 10.628087
59.630 10.756358
59.635 11.019783
59.640 10.631883
59.645 10.77729
59.650 10.474834
59.655 10.072492
59.660 9.68263
59.665 9.409945
59.670 9.136548
59.675 9.027661
59.680 8.776859
59.685 8.975997
59.690 9.346777
59.695 9.49652
59.700 9.057494
59.705 8.819519
59.710 8.791346
59.715 8.800885
59.720 8.567777
59.725 8.449561
59.730 8.507796
59.735 8.689847
59.740 9.129869
59.745 9.289615
59.750 9.152871
59.755 8.911389
59.760 8.63489
59.765 8.61226
59.770 8.892522
59.775 8.697673
59.780 8.597948
59.785 8.358799
59.790 8.232158
59.795 7.794829
59.800 7.099319
59.805 6.509207
59.810 6.22296
59.815 6.070201
59.820 5.956074
59.825 6.092697
59.830 6.659726
59.835 7.302314
59.840 7.345228
59.845 7.221912
59.850 7.284689
59.855 7.410255
59.860 7.48152
59.865 6.821973
59.870 6.410502
59.875 6.218602
59.880 5.845289
59.885 5.859125
59.890 5.595846
59.895 5.128101
59.900 4.910916
59.905 4.725571
59.910 5.098723
59.915 5.465189
59.920 5.208004
59.925 4.998203
59.930 5.020902
59.935 5.29227
59.940 5.227753
59.945 5.365791
59.950 5.281408
59.955 5.615924
59.960 5.774346
59.965 5.783183
59.970 6.007042
59.975 6.25359
59.980 5.866646
59.985 5.797208
59.990 6.030347
59.995 5.983559
60.000 5.896957
60.005 5.746921
60.010 5.858331
60.015 6.238041
60.020 5.981504
60.025 5.60783
60.030 5.762656
60.035 5.747604
60.040 5.76754
60.045 5.475087
60.050 5.414209
60.055 5.725094
60.060 6.016728
60.065 6.182662
60.070 6.458533
60.075 6.404302
60.080 6.562597
60.085 6.190463
60.090 5.98136
60.095 5.863085
60.100 5.888544
60.105 5.356107
60.110 5.315572
60.115 4.993588
60.120 5.218513
60.125 5.278982
60.130 4.995039
60.135 4.949541
60.140 5.154656
60.145 5.215799
60.150 5.260676
60.155 5.382957
60.160 5.411983
60.165 5.757917
60.170 6.156714
60.175 6.018195
60.180 5.882569
60.185 5.794018
60.190 5.809648
60.195 5.974322
60.200 5.454848
60.205 5.062445
60.210 5.352444
60.215 5.563904
60.220 5.66139
60.225 5.322374
60.230 4.980317
60.235 5.139996
60.240 5.185287
60.245 5.059903
60.250 5.241291
60.255 5.092515
60.260 5.212522
60.265 5.376875
60.270 5.482843
60.275 5.43539
60.280 5.62037
60.285 5.260362
60.290 5.483006
60.295 5.55619
60.300 5.388405
60.305 5.354842
60.310 5.487528
60.315 4.954031
60.320 5.117571
60.325 5.04902
60.330 4.982085
60.335 5.154857
60.340 5.395642
60.345 5.496313
60.350 5.951129
60.355 5.990584
60.360 6.050214
60.365 6.372998
60.370 6.286675
60.375 5.962084
60.380 5.781648
60.385 5.573674
60.390 5.382506
60.395 5.191146
60.400 5.157393
60.405 5.147429
60.410 5.211466
60.415 5.498342
60.420 5.699348
60.425 5.535347
60.430 5.511576
60.435 5.573759
60.440 5.652126
60.445 5.561505
60.450 5.398432
60.455 5.366893
60.460 5.578459
60.465 5.596357
60.470 5.276773
60.475 5.399037
60.480 5.335856
60.485 4.924076
60.490 4.674219
60.495 4.777133
60.500 4.858584
60.505 4.809112
60.510 4.457996
60.515 4.663082
60.520 5.02663
60.525 5.036199
60.530 4.79043
60.535 4.696734
60.540 4.839849
60.545 4.751995
60.550 4.325305
60.555 4.220966
60.560 4.410909
60.565 4.309798
60.570 4.223151
60.575 4.264641
60.580 4.556299
60.585 5.017356
60.590 5.254503
60.595 5.516957
60.600 6.130171
60.605 6.196431
60.610 5.943271
60.615 5.750137
60.620 5.719421
60.625 5.766839
60.630 5.500817
60.635 5.040338
60.640 4.899781
60.645 5.114224
60.650 5.216724
60.655 5.073611
60.660 5.128923
60.665 5.265408
60.670 5.320236
60.675 5.477884
60.680 5.586697
60.685 5.498553
60.690 5.504704
60.695 5.404401
60.700 5.289119
60.705 5.280973
60.710 5.52353
60.715 5.740673
60.720 5.735832
60.725 5.664857
60.730 5.750861
60.735 5.778287
60.740 5.639928
60.745 5.191155
60.750 5.090961
60.755 4.87565
60.760 5.010833
